 C10H8O4 Density=1.4 Thickness=0.9 microns
 Photon Energy (eV), Transmission
    200.00      0.36406    
    202.40      0.37640    
    204.80      0.38858    
    207.20      0.40060    
    209.60      0.41245    
    212.00      0.42412    
    214.40      0.43561    
    216.80      0.44691    
    219.20      0.45797    
    221.60      0.46878    
    224.00      0.47926    
    226.40      0.48955    
    228.80      0.49965    
    231.20      0.50955    
    233.60      0.51926    
    236.00      0.52877    
    238.40      0.53792    
    240.80      0.54662    
    243.20      0.55482    
    245.60      0.56302    
    248.00      0.57123    
    250.40      0.57986    
    252.80      0.58829    
    255.20      0.59653    
    257.60      0.60459    
    260.00      0.61247    
    262.40      0.62017    
    264.80      0.62769    
    267.20      0.63503    
    269.60      0.64221    
    272.00      0.64922    
    274.40      0.65609    
    276.80      0.66280    
    279.20      0.66939    
    281.60      0.67582    
    284.00      0.68212    
    286.40      0.14488E-01
    288.80      0.15667E-01
    291.20      0.16907E-01
    293.60      0.18209E-01
    296.00      0.19574E-01
    298.40      0.21001E-01
    300.80      0.22492E-01
    303.20      0.24046E-01
    305.60      0.25664E-01
    308.00      0.27346E-01
    310.40      0.29093E-01
    312.80      0.30904E-01
    315.20      0.32779E-01
    317.60      0.34718E-01
    320.00      0.36720E-01
    322.40      0.38786E-01
    324.80      0.40915E-01
    327.20      0.43106E-01
    329.60      0.45359E-01
    332.00      0.47672E-01
    334.40      0.50047E-01
    336.80      0.52481E-01
    339.20      0.54974E-01
    341.60      0.57525E-01
    344.00      0.60133E-01
    346.40      0.62797E-01
    348.80      0.65515E-01
    351.20      0.68288E-01
    353.60      0.71113E-01
    356.00      0.73990E-01
    358.40      0.76918E-01
    360.80      0.79895E-01
    363.20      0.82920E-01
    365.60      0.85993E-01
    368.00      0.89111E-01
    370.40      0.92273E-01
    372.80      0.95478E-01
    375.20      0.98725E-01
    377.60      0.10219    
    380.00      0.10575    
    382.40      0.10939    
    384.80      0.11318    
    387.20      0.11702    
    389.60      0.12090    
    392.00      0.12482    
    394.40      0.12879    
    396.80      0.13280    
    399.20      0.13684    
    401.60      0.14092    
    404.00      0.14503    
    406.40      0.14918    
    408.80      0.15335    
    411.20      0.15755    
    413.60      0.16179    
    416.00      0.16604    
    418.40      0.17032    
    420.80      0.17463    
    423.20      0.17895    
    425.60      0.18329    
    428.00      0.18766    
    430.40      0.19203    
    432.80      0.19643    
    435.20      0.20083    
    437.60      0.20525    
    440.00      0.20968    
    442.40      0.21412    
    444.80      0.21857    
    447.20      0.22302    
    449.60      0.22748    
    452.00      0.23195    
    454.40      0.23642    
    456.80      0.24089    
    459.20      0.24536    
    461.60      0.24983    
    464.00      0.25430    
    466.40      0.25877    
    468.80      0.26323    
    471.20      0.26769    
    473.60      0.27215    
    476.00      0.27660    
    478.40      0.28105    
    480.80      0.28549    
    483.20      0.28992    
    485.60      0.29434    
    488.00      0.29884    
    490.40      0.30332    
    492.80      0.30780    
    495.20      0.31226    
    497.60      0.31671    
    500.00      0.32114    
    502.40      0.32556    
    504.80      0.32997    
    507.20      0.33436    
    509.60      0.33874    
    512.00      0.34310    
    514.40      0.34744    
    516.80      0.35177    
    519.20      0.35608    
    521.60      0.36037    
    524.00      0.36464    
    526.40      0.36889    
    528.80      0.37312    
    531.20      0.37734    
    533.60      0.38153    
    536.00      0.38570    
    538.40      0.38985    
    540.80      0.39398    
    543.20      0.17017    
    545.60      0.17350    
    548.00      0.17685    
    550.40      0.18020    
    552.80      0.18357    
    555.20      0.18695    
    557.60      0.19033    
    560.00      0.19373    
    562.40      0.19713    
    564.80      0.20054    
    567.20      0.20396    
    569.60      0.20739    
    572.00      0.21079    
    574.40      0.21420    
    576.80      0.21761    
    579.20      0.22103    
    581.60      0.22444    
    584.00      0.22785    
    586.40      0.23127    
    588.80      0.23469    
    591.20      0.23811    
    593.60      0.24152    
    596.00      0.24494    
    598.40      0.24836    
    600.80      0.25177    
    603.20      0.25519    
    605.60      0.25861    
    608.00      0.26202    
    610.40      0.26543    
    612.80      0.26884    
    615.20      0.27225    
    617.60      0.27565    
    620.00      0.27905    
    622.40      0.28245    
    624.80      0.28584    
    627.20      0.28923    
    629.60      0.29265    
    632.00      0.29607    
    634.40      0.29948    
    636.80      0.30289    
    639.20      0.30633    
    641.60      0.30979    
    644.00      0.31324    
    646.40      0.31669    
    648.80      0.32013    
    651.20      0.32360    
    653.60      0.32706    
    656.00      0.33052    
    658.40      0.33396    
    660.80      0.33739    
    663.20      0.34082    
    665.60      0.34423    
    668.00      0.34764    
    670.40      0.35096    
    672.80      0.35419    
    675.20      0.35741    
    677.60      0.36062    
    680.00      0.36381    
    682.40      0.36688    
    684.80      0.36993    
    687.20      0.37297    
    689.60      0.37599    
    692.00      0.37900    
    694.40      0.38197    
    696.80      0.38493    
    699.20      0.38788    
    701.60      0.39082    
    704.00      0.39389    
    706.40      0.39701    
    708.80      0.40012    
    711.20      0.40322    
    713.60      0.40630    
    716.00      0.40951    
    718.40      0.41271    
    720.80      0.41589    
    723.20      0.41906    
    725.60      0.42222    
    728.00      0.42536    
    730.40      0.42849    
    732.80      0.43160    
    735.20      0.43469    
    737.60      0.43778    
    740.00      0.44085    
    742.40      0.44390    
    744.80      0.44694    
    747.20      0.44996    
    749.60      0.45297    
    752.00      0.45597    
    754.40      0.45895    
    756.80      0.46192    
    759.20      0.46487    
    761.60      0.46781    
    764.00      0.47074    
    766.40      0.47365    
    768.80      0.47656    
    771.20      0.47944    
    773.60      0.48231    
    776.00      0.48520    
    778.40      0.48807    
    780.80      0.49093    
    783.20      0.49376    
    785.60      0.49659    
    788.00      0.49942    
    790.40      0.50224    
    792.80      0.50504    
    795.20      0.50783    
    797.60      0.51060    
    800.00      0.51336    
    802.40      0.51610    
    804.80      0.51882    
    807.20      0.52153    
    809.60      0.52423    
    812.00      0.52690    
    814.40      0.52957    
    816.80      0.53221    
    819.20      0.53485    
    821.60      0.53746    
    824.00      0.54006    
    826.40      0.54265    
    828.80      0.54522    
    831.20      0.54777    
    833.60      0.55031    
    836.00      0.55284    
    838.40      0.55534    
    840.80      0.55782    
    843.20      0.56028    
    845.60      0.56272    
    848.00      0.56515    
    850.40      0.56757    
    852.80      0.56996    
    855.20      0.57232    
    857.60      0.57467    
    860.00      0.57701    
    862.40      0.57933    
    864.80      0.58164    
    867.20      0.58392    
    869.60      0.58618    
    872.00      0.58843    
    874.40      0.59066    
    876.80      0.59288    
    879.20      0.59509    
    881.60      0.59728    
    884.00      0.59946    
    886.40      0.60163    
    888.80      0.60378    
    891.20      0.60592    
    893.60      0.60804    
    896.00      0.61015    
    898.40      0.61225    
    900.80      0.61434    
    903.20      0.61641    
    905.60      0.61847    
    908.00      0.62052    
    910.40      0.62256    
    912.80      0.62458    
    915.20      0.62659    
    917.60      0.62858    
    920.00      0.63057    
    922.40      0.63254    
    924.80      0.63455    
    927.20      0.63655    
    929.60      0.63853    
    932.00      0.64050    
    934.40      0.64247    
    936.80      0.64441    
    939.20      0.64636    
    941.60      0.64829    
    944.00      0.65022    
    946.40      0.65213    
    948.80      0.65403    
    951.20      0.65591    
    953.60      0.65779    
    956.00      0.65966    
    958.40      0.66152    
    960.80      0.66337    
    963.20      0.66521    
    965.60      0.66703    
    968.00      0.66885    
    970.40      0.67065    
    972.80      0.67244    
    975.20      0.67422    
    977.60      0.67598    
    980.00      0.67774    
    982.40      0.67948    
    984.80      0.68121    
    987.20      0.68293    
    989.60      0.68464    
    992.00      0.68634    
    994.40      0.68803    
    996.80      0.68970    
    999.20      0.69137    
    1001.6      0.69302    
    1004.0      0.69466    
    1006.4      0.69630    
    1008.8      0.69792    
    1011.2      0.69953    
    1013.6      0.70113    
    1016.0      0.70272    
    1018.4      0.70428    
    1020.8      0.70584    
    1023.2      0.70739    
    1025.6      0.70893    
    1028.0      0.71046    
    1030.4      0.71197    
    1032.8      0.71349    
    1035.2      0.71500    
    1037.6      0.71650    
    1040.0      0.71799    
    1042.4      0.71948    
    1044.8      0.72095    
    1047.2      0.72242    
    1049.6      0.72387    
    1052.0      0.72533    
    1054.4      0.72678    
    1056.8      0.72822    
    1059.2      0.72966    
    1061.6      0.73108    
    1064.0      0.73249    
    1066.4      0.73389    
    1068.8      0.73529    
    1071.2      0.73667    
    1073.6      0.73805    
    1076.0      0.73942    
    1078.4      0.74078    
    1080.8      0.74213    
    1083.2      0.74347    
    1085.6      0.74480    
    1088.0      0.74612    
    1090.4      0.74744    
    1092.8      0.74875    
    1095.2      0.75004    
    1097.6      0.75133    
    1100.0      0.75262    
    1102.4      0.75389    
    1104.8      0.75516    
    1107.2      0.75642    
    1109.6      0.75766    
    1112.0      0.75891    
    1114.4      0.76014    
    1116.8      0.76137    
    1119.2      0.76258    
    1121.6      0.76379    
    1124.0      0.76500    
    1126.4      0.76619    
    1128.8      0.76738    
    1131.2      0.76855    
    1133.6      0.76973    
    1136.0      0.77089    
    1138.4      0.77205    
    1140.8      0.77319    
    1143.2      0.77434    
    1145.6      0.77547    
    1148.0      0.77660    
    1150.4      0.77772    
    1152.8      0.77883    
    1155.2      0.77994    
    1157.6      0.78103    
    1160.0      0.78213    
    1162.4      0.78321    
    1164.8      0.78429    
    1167.2      0.78536    
    1169.6      0.78643    
    1172.0      0.78749    
    1174.4      0.78854    
    1176.8      0.78958    
    1179.2      0.79062    
    1181.6      0.79165    
    1184.0      0.79268    
    1186.4      0.79369    
    1188.8      0.79471    
    1191.2      0.79571    
    1193.6      0.79671    
    1196.0      0.79771    
    1198.4      0.79869    
    1200.8      0.79967    
    1203.2      0.80065    
    1205.6      0.80162    
    1208.0      0.80258    
    1210.4      0.80354    
    1212.8      0.80449    
    1215.2      0.80543    
    1217.6      0.80637    
    1220.0      0.80731    
    1222.4      0.80824    
    1224.8      0.80916    
    1227.2      0.81007    
    1229.6      0.81098    
    1232.0      0.81189    
    1234.4      0.81279    
    1236.8      0.81369    
    1239.2      0.81459    
    1241.6      0.81547    
    1244.0      0.81635    
    1246.4      0.81723    
    1248.8      0.81810    
    1251.2      0.81897    
    1253.6      0.81983    
    1256.0      0.82069    
    1258.4      0.82155    
    1260.8      0.82240    
    1263.2      0.82324    
    1265.6      0.82408    
    1268.0      0.82491    
    1270.4      0.82574    
    1272.8      0.82657    
    1275.2      0.82739    
    1277.6      0.82821    
    1280.0      0.82903    
    1282.4      0.82984    
    1284.8      0.83064    
    1287.2      0.83144    
    1289.6      0.83224    
    1292.0      0.83303    
    1294.4      0.83381    
    1296.8      0.83459    
    1299.2      0.83537    
    1301.6      0.83614    
    1304.0      0.83691    
    1306.4      0.83767    
    1308.8      0.83843    
    1311.2      0.83918    
    1313.6      0.83993    
    1316.0      0.84067    
    1318.4      0.84141    
    1320.8      0.84214    
    1323.2      0.84287    
    1325.6      0.84360    
    1328.0      0.84432    
    1330.4      0.84504    
    1332.8      0.84575    
    1335.2      0.84646    
    1337.6      0.84716    
    1340.0      0.84786    
    1342.4      0.84856    
    1344.8      0.84925    
    1347.2      0.84994    
    1349.6      0.85062    
    1352.0      0.85130    
    1354.4      0.85198    
    1356.8      0.85265    
    1359.2      0.85332    
    1361.6      0.85398    
    1364.0      0.85464    
    1366.4      0.85530    
    1368.8      0.85595    
    1371.2      0.85660    
    1373.6      0.85724    
    1376.0      0.85788    
    1378.4      0.85852    
    1380.8      0.85915    
    1383.2      0.85978    
    1385.6      0.86041    
    1388.0      0.86103    
    1390.4      0.86165    
    1392.8      0.86226    
    1395.2      0.86288    
    1397.6      0.86348    
    1400.0      0.86409    