 Al Density=2.6989 Thickness=0.5 microns
 Photon Energy (eV), Transmission
    60.000      0.49535    
    63.080      0.51088    
    66.160      0.49383    
    69.240      0.47614    
    72.320      0.46082    
    75.400      0.66112E-04
    78.480      0.24416E-04
    81.560      0.87696E-05
    84.640      0.31939E-05
    87.720      0.14804E-05
    90.800      0.11132E-05
    93.880      0.84017E-06
    96.960      0.63642E-06
    100.04      0.48372E-06
    103.12      0.37099E-06
    106.20      0.30388E-06
    109.28      0.25458E-06
    112.36      0.21387E-06
    115.44      0.18020E-06
    118.52      0.15223E-06
    121.60      0.12893E-06
    124.68      0.11721E-06
    127.76      0.15779E-06
    130.84      0.22084E-06
    133.92      0.30454E-06
    137.00      0.41420E-06
    140.08      0.55611E-06
    143.16      0.73765E-06
    146.24      0.96737E-06
    149.32      0.12551E-05
    152.40      0.16803E-05
    155.48      0.22848E-05
    158.56      0.30679E-05
    161.64      0.40696E-05
    164.72      0.53369E-05
    167.80      0.69238E-05
    170.88      0.88918E-05
    173.96      0.11310E-04
    177.04      0.14349E-04
    180.12      0.19538E-04
    183.20      0.29269E-04
    186.28      0.42920E-04
    189.36      0.61690E-04
    192.44      0.87034E-04
    195.52      0.12067E-03
    198.60      0.16461E-03
    201.68      0.22137E-03
    204.76      0.29431E-03
    207.84      0.38597E-03
    210.92      0.49974E-03
    214.00      0.63925E-03
    217.08      0.80853E-03
    220.16      0.10118E-02
    223.24      0.12465E-02
    226.32      0.15018E-02
    229.40      0.17772E-02
    232.48      0.20893E-02
    235.56      0.24412E-02
    238.64      0.28355E-02
    241.72      0.32753E-02
    244.80      0.37632E-02
    247.88      0.43021E-02
    250.96      0.48947E-02
    254.04      0.55434E-02
    257.12      0.62508E-02
    260.20      0.70192E-02
    263.28      0.78509E-02
    266.36      0.87893E-02
    269.44      0.99119E-02
    272.52      0.11291E-01
    275.60      0.12797E-01
    278.68      0.14435E-01
    281.76      0.16206E-01
    284.84      0.18116E-01
    287.92      0.20167E-01
    291.00      0.22362E-01
    294.08      0.24702E-01
    297.16      0.27188E-01
    300.24      0.29822E-01
    303.32      0.32604E-01
    306.40      0.35535E-01
    309.48      0.38612E-01
    312.56      0.41837E-01
    315.64      0.45207E-01
    318.72      0.48721E-01
    321.80      0.52377E-01
    324.88      0.56173E-01
    327.96      0.60104E-01
    331.04      0.64170E-01
    334.12      0.68367E-01
    337.20      0.72692E-01
    340.28      0.77140E-01
    343.36      0.81707E-01
    346.44      0.86390E-01
    349.52      0.91185E-01
    352.60      0.96088E-01
    355.68      0.10109    
    358.76      0.10610    
    361.84      0.11090    
    364.92      0.11573    
    368.00      0.12054    
    371.08      0.12542    
    374.16      0.13035    
    377.24      0.13534    
    380.32      0.14038    
    383.40      0.14547    
    386.48      0.15061    
    389.56      0.15579    
    392.64      0.16100    
    395.72      0.16626    
    398.80      0.17154    
    401.88      0.17686    
    404.96      0.18220    
    408.04      0.18757    
    411.12      0.19296    
    414.20      0.19836    
    417.28      0.20379    
    420.36      0.20922    
    423.44      0.21467    
    426.52      0.22013    
    429.60      0.22559    
    432.68      0.23106    
    435.76      0.23673    
    438.84      0.24255    
    441.92      0.24841    
    445.00      0.25438    
    448.08      0.26035    
    451.16      0.26631    
    454.24      0.27225    
    457.32      0.27819    
    460.40      0.28412    
    463.48      0.29003    
    466.56      0.29593    
    469.64      0.30181    
    472.72      0.30766    
    475.80      0.31350    
    478.88      0.31931    
    481.96      0.32511    
    485.04      0.33087    
    488.12      0.33662    
    491.20      0.34234    
    494.28      0.34805    
    497.36      0.35376    
    500.44      0.35944    
    503.52      0.36515    
    506.60      0.37085    
    509.68      0.37652    
    512.76      0.38219    
    515.84      0.38782    
    518.92      0.39340    
    522.00      0.39894    
    525.08      0.40444    
    528.16      0.40989    
    531.24      0.41529    
    534.32      0.42064    
    537.40      0.42595    
    540.48      0.43121    
    543.56      0.43644    
    546.64      0.44161    
    549.72      0.44675    
    552.80      0.45186    
    555.88      0.45702    
    558.96      0.46212    
    562.04      0.46721    
    565.12      0.47228    
    568.20      0.47731    
    571.28      0.48231    
    574.36      0.48731    
    577.44      0.49226    
    580.52      0.49717    
    583.60      0.50204    
    586.68      0.50687    
    589.76      0.51165    
    592.84      0.51639    
    595.92      0.52108    
    599.00      0.52572    
    602.08      0.53032    
    605.16      0.53488    
    608.24      0.53938    
    611.32      0.54384    
    614.40      0.54826    
    617.48      0.55263    
    620.56      0.55696    
    623.64      0.56125    
    626.72      0.56549    
    629.80      0.56974    
    632.88      0.57398    
    635.96      0.57816    
    639.04      0.58235    
    642.12      0.58656    
    645.20      0.59073    
    648.28      0.59485    
    651.36      0.59900    
    654.44      0.60310    
    657.52      0.60716    
    660.60      0.61116    
    663.68      0.61513    
    666.76      0.61905    
    669.84      0.62288    
    672.92      0.62647    
    676.00      0.63003    
    679.08      0.63354    
    682.16      0.63690    
    685.24      0.64016    
    688.32      0.64338    
    691.40      0.64657    
    694.48      0.64968    
    697.56      0.65276    
    700.64      0.65581    
    703.72      0.65888    
    706.80      0.66200    
    709.88      0.66508    
    712.96      0.66814    
    716.04      0.67122    
    719.12      0.67430    
    722.20      0.67734    
    725.28      0.68035    
    728.36      0.68332    
    731.44      0.68626    
    734.52      0.68917    
    737.60      0.69204    
    740.68      0.69488    
    743.76      0.69769    
    746.84      0.70047    
    749.92      0.70322    
    753.00      0.70594    
    756.08      0.70863    
    759.16      0.71129    
    762.24      0.71392    
    765.32      0.71652    
    768.40      0.71910    
    771.48      0.72164    
    774.56      0.72417    
    777.64      0.72667    
    780.72      0.72915    
    783.80      0.73160    
    786.88      0.73403    
    789.96      0.73644    
    793.04      0.73882    
    796.12      0.74118    
    799.20      0.74351    
    802.28      0.74581    
    805.36      0.74809    
    808.44      0.75034    
    811.52      0.75257    
    814.60      0.75477    
    817.68      0.75695    
    820.76      0.75910    
    823.84      0.76123    
    826.92      0.76334    
    830.00      0.76542    
    833.08      0.76748    
    836.16      0.76952    
    839.24      0.77154    
    842.32      0.77353    
    845.40      0.77550    
    848.48      0.77745    
    851.56      0.77938    
    854.64      0.78129    
    857.72      0.78318    
    860.80      0.78505    
    863.88      0.78690    
    866.96      0.78872    
    870.04      0.79054    
    873.12      0.79233    
    876.20      0.79410    
    879.28      0.79585    
    882.36      0.79758    
    885.44      0.79930    
    888.52      0.80099    
    891.60      0.80267    
    894.68      0.80433    
    897.76      0.80597    
    900.84      0.80759    
    903.92      0.80920    
    907.00      0.81079    
    910.08      0.81236    
    913.16      0.81391    
    916.24      0.81545    
    919.32      0.81697    
    922.40      0.81848    
    925.48      0.81998    
    928.56      0.82145    
    931.64      0.82292    
    934.72      0.82437    
    937.80      0.82580    
    940.88      0.82722    
    943.96      0.82862    
    947.04      0.83001    
    950.12      0.83138    
    953.20      0.83274    
    956.28      0.83408    
    959.36      0.83541    
    962.44      0.83673    
    965.52      0.83803    
    968.60      0.83932    
    971.68      0.84060    
    974.76      0.84187    
    977.84      0.84312    
    980.92      0.84436    
    984.00      0.84558    
    987.08      0.84679    
    990.16      0.84799    
    993.24      0.84917    
    996.32      0.85035    
    999.40      0.85151    
    1002.5      0.85265    
    1005.6      0.85379    
    1008.6      0.85491    
    1011.7      0.85602    
    1014.8      0.85712    
    1017.9      0.85819    
    1021.0      0.85924    
    1024.0      0.86028    
    1027.1      0.86131    
    1030.2      0.86233    
    1033.3      0.86334    
    1036.4      0.86436    
    1039.4      0.86536    
    1042.5      0.86636    
    1045.6      0.86735    
    1048.7      0.86833    
    1051.8      0.86931    
    1054.8      0.87029    
    1057.9      0.87126    
    1061.0      0.87222    
    1064.1      0.87317    
    1067.2      0.87412    
    1070.2      0.87505    
    1073.3      0.87597    
    1076.4      0.87689    
    1079.5      0.87779    
    1082.6      0.87869    
    1085.6      0.87958    
    1088.7      0.88046    
    1091.8      0.88133    
    1094.9      0.88219    
    1098.0      0.88305    
    1101.0      0.88390    
    1104.1      0.88473    
    1107.2      0.88556    
    1110.3      0.88639    
    1113.4      0.88720    
    1116.4      0.88801    
    1119.5      0.88881    
    1122.6      0.88960    
    1125.7      0.89039    
    1128.8      0.89116    
    1131.8      0.89193    
    1134.9      0.89270    
    1138.0      0.89345    
    1141.1      0.89420    
    1144.2      0.89494    
    1147.2      0.89568    
    1150.3      0.89641    
    1153.4      0.89713    
    1156.5      0.89784    
    1159.6      0.89855    
    1162.6      0.89925    
    1165.7      0.89995    
    1168.8      0.90064    
    1171.9      0.90132    
    1175.0      0.90200    
    1178.0      0.90267    
    1181.1      0.90333    
    1184.2      0.90399    
    1187.3      0.90464    
    1190.4      0.90529    
    1193.4      0.90593    
    1196.5      0.90656    
    1199.6      0.90719    
    1202.7      0.90782    
    1205.8      0.90843    
    1208.8      0.90905    
    1211.9      0.90965    
    1215.0      0.91026    
    1218.1      0.91085    
    1221.2      0.91144    
    1224.2      0.91203    
    1227.3      0.91261    
    1230.4      0.91319    
    1233.5      0.91376    
    1236.6      0.91432    
    1239.6      0.91487    
    1242.7      0.91543    
    1245.8      0.91597    
    1248.9      0.91652    
    1252.0      0.91706    
    1255.0      0.91758    
    1258.1      0.91811    
    1261.2      0.91863    
    1264.3      0.91915    
    1267.4      0.91966    
    1270.4      0.92017    
    1273.5      0.92067    
    1276.6      0.92116    
    1279.7      0.92165    
    1282.8      0.92214    
    1285.8      0.92262    
    1288.9      0.92310    
    1292.0      0.92357    
    1295.1      0.92404    
    1298.2      0.92451    
    1301.2      0.92497    
    1304.3      0.92543    
    1307.4      0.92589    
    1310.5      0.92634    
    1313.6      0.92679    
    1316.6      0.92723    
    1319.7      0.92767    
    1322.8      0.92811    
    1325.9      0.92854    
    1329.0      0.92897    
    1332.0      0.92940    
    1335.1      0.92982    
    1338.2      0.93024    
    1341.3      0.93066    
    1344.4      0.93107    
    1347.4      0.93148    
    1350.5      0.93189    
    1353.6      0.93229    
    1356.7      0.93269    
    1359.8      0.93309    
    1362.8      0.93348    
    1365.9      0.93387    
    1369.0      0.93426    
    1372.1      0.93465    
    1375.2      0.93503    
    1378.2      0.93541    
    1381.3      0.93578    
    1384.4      0.93615    
    1387.5      0.93652    
    1390.6      0.93689    
    1393.6      0.93725    
    1396.7      0.93761    
    1399.8      0.93797    
    1402.9      0.93833    
    1406.0      0.93868    
    1409.0      0.93903    
    1412.1      0.93938    
    1415.2      0.93972    
    1418.3      0.94006    
    1421.4      0.94040    
    1424.4      0.94074    
    1427.5      0.94107    
    1430.6      0.94140    
    1433.7      0.94173    
    1436.8      0.94206    
    1439.8      0.94239    
    1442.9      0.94271    
    1446.0      0.94303    
    1449.1      0.94335    
    1452.2      0.94366    
    1455.2      0.94398    
    1458.3      0.94429    
    1461.4      0.94460    
    1464.5      0.94491    
    1467.6      0.94521    
    1470.6      0.94552    
    1473.7      0.94582    
    1476.8      0.94613    
    1479.9      0.94643    
    1483.0      0.94672    
    1486.0      0.94702    
    1489.1      0.94731    
    1492.2      0.94761    
    1495.3      0.94791    
    1498.4      0.94821    
    1501.4      0.94851    
    1504.5      0.94881    
    1507.6      0.94910    
    1510.7      0.94940    
    1513.8      0.94969    
    1516.8      0.94998    
    1519.9      0.95027    
    1523.0      0.95055    
    1526.1      0.95084    
    1529.2      0.95112    
    1532.2      0.95140    
    1535.3      0.95168    
    1538.4      0.95196    
    1541.5      0.95223    
    1544.6      0.95250    
    1547.6      0.95277    
    1550.7      0.95304    
    1553.8      0.95331    
    1556.9      0.95357    
    1560.0      0.57010    
    1563.0      0.57160    
    1566.1      0.57308    
    1569.2      0.57456    
    1572.3      0.57603    
    1575.4      0.57750    
    1578.4      0.57897    
    1581.5      0.58042    
    1584.6      0.58187    
    1587.7      0.58332    
    1590.8      0.58476    
    1593.8      0.58619    
    1596.9      0.58761    
    1600.0      0.58904    
