 Co Density=8.9 Thickness=2.00000E-02 microns
 Photon Energy (eV), Transmission
    180.00      0.56873    
    182.27      0.57453    
    184.53      0.58022    
    186.80      0.58583    
    189.07      0.59138    
    191.33      0.59690    
    193.60      0.60259    
    195.87      0.60818    
    198.13      0.61366    
    200.40      0.61902    
    202.67      0.62427    
    204.93      0.62943    
    207.20      0.63450    
    209.47      0.63949    
    211.73      0.64447    
    214.00      0.64946    
    216.27      0.65437    
    218.53      0.65918    
    220.80      0.66389    
    223.07      0.66850    
    225.33      0.67301    
    227.60      0.67744    
    229.87      0.68178    
    232.13      0.68604    
    234.40      0.69021    
    236.67      0.69432    
    238.93      0.69839    
    241.20      0.70243    
    243.47      0.70641    
    245.73      0.71037    
    248.00      0.71425    
    250.27      0.71807    
    252.53      0.72181    
    254.80      0.72547    
    257.07      0.72907    
    259.33      0.73260    
    261.60      0.73606    
    263.87      0.73945    
    266.13      0.74278    
    268.40      0.74606    
    270.67      0.74936    
    272.93      0.75260    
    275.20      0.75581    
    277.47      0.75896    
    279.73      0.76205    
    282.00      0.76509    
    284.27      0.76807    
    286.53      0.77100    
    288.80      0.77388    
    291.07      0.77670    
    293.33      0.77947    
    295.60      0.78219    
    297.87      0.78489    
    300.13      0.78753    
    302.40      0.79015    
    304.67      0.79272    
    306.93      0.79527    
    309.20      0.79777    
    311.47      0.80024    
    313.73      0.80266    
    316.00      0.80503    
    318.27      0.80737    
    320.53      0.80966    
    322.80      0.81191    
    325.07      0.81412    
    327.33      0.81632    
    329.60      0.81849    
    331.87      0.82062    
    334.13      0.82272    
    336.40      0.82479    
    338.67      0.82683    
    340.93      0.82884    
    343.20      0.83082    
    345.47      0.83276    
    347.73      0.83468    
    350.00      0.83656    
    352.27      0.83841    
    354.53      0.84022    
    356.80      0.84201    
    359.07      0.84378    
    361.33      0.84554    
    363.60      0.84727    
    365.87      0.84897    
    368.13      0.85065    
    370.40      0.85230    
    372.67      0.85392    
    374.93      0.85553    
    377.20      0.85710    
    379.47      0.85865    
    381.73      0.86017    
    384.00      0.86168    
    386.27      0.86316    
    388.53      0.86463    
    390.80      0.86607    
    393.07      0.86750    
    395.33      0.86890    
    397.60      0.87029    
    399.87      0.87166    
    402.13      0.87301    
    404.40      0.87434    
    406.67      0.87565    
    408.93      0.87693    
    411.20      0.87820    
    413.47      0.87945    
    415.73      0.88069    
    418.00      0.88191    
    420.27      0.88312    
    422.53      0.88431    
    424.80      0.88548    
    427.07      0.88663    
    429.33      0.88778    
    431.60      0.88891    
    433.87      0.89002    
    436.13      0.89112    
    438.40      0.89220    
    440.67      0.89326    
    442.93      0.89431    
    445.20      0.89535    
    447.47      0.89637    
    449.73      0.89738    
    452.00      0.89838    
    454.27      0.89936    
    456.53      0.90034    
    458.80      0.90130    
    461.07      0.90224    
    463.33      0.90318    
    465.60      0.90410    
    467.87      0.90501    
    470.13      0.90590    
    472.40      0.90679    
    474.67      0.90766    
    476.93      0.90852    
    479.20      0.90937    
    481.47      0.91022    
    483.73      0.91106    
    486.00      0.91189    
    488.27      0.91271    
    490.53      0.91352    
    492.80      0.91432    
    495.07      0.91511    
    497.33      0.91589    
    499.60      0.91665    
    501.87      0.91741    
    504.13      0.91816    
    506.40      0.91890    
    508.67      0.91962    
    510.93      0.92034    
    513.20      0.92105    
    515.47      0.92175    
    517.73      0.92244    
    520.00      0.92312    
    522.27      0.92379    
    524.53      0.92445    
    526.80      0.92510    
    529.07      0.92574    
    531.33      0.92637    
    533.60      0.92699    
    535.87      0.92760    
    538.13      0.92820    
    540.40      0.92880    
    542.67      0.92939    
    544.93      0.92997    
    547.20      0.93055    
    549.47      0.93111    
    551.73      0.93167    
    554.00      0.93224    
    556.27      0.93280    
    558.53      0.93336    
    560.80      0.93391    
    563.07      0.93446    
    565.33      0.93500    
    567.60      0.93553    
    569.87      0.93606    
    572.13      0.93658    
    574.40      0.93708    
    576.67      0.93759    
    578.93      0.93808    
    581.20      0.93857    
    583.47      0.93905    
    585.73      0.93953    
    588.00      0.94000    
    590.27      0.94047    
    592.53      0.94092    
    594.80      0.94138    
    597.07      0.94183    
    599.33      0.94227    
    601.60      0.94271    
    603.87      0.94315    
    606.13      0.94358    
    608.40      0.94400    
    610.67      0.94442    
    612.93      0.94484    
    615.20      0.94525    
    617.47      0.94565    
    619.73      0.94606    
    622.00      0.94645    
    624.27      0.94685    
    626.53      0.94724    
    628.80      0.94763    
    631.07      0.94802    
    633.33      0.94840    
    635.60      0.94878    
    637.87      0.94916    
    640.13      0.94955    
    642.40      0.94993    
    644.67      0.95031    
    646.93      0.95068    
    649.20      0.95105    
    651.47      0.95143    
    653.73      0.95179    
    656.00      0.95216    
    658.27      0.95252    
    660.53      0.95288    
    662.80      0.95323    
    665.07      0.95358    
    667.33      0.95393    
    669.60      0.95426    
    671.87      0.95458    
    674.13      0.95490    
    676.40      0.95521    
    678.67      0.95552    
    680.93      0.95582    
    683.20      0.95610    
    685.47      0.95639    
    687.73      0.95667    
    690.00      0.95695    
    692.27      0.95722    
    694.53      0.95749    
    696.80      0.95776    
    699.07      0.95802    
    701.33      0.95829    
    703.60      0.95856    
    705.87      0.95883    
    708.13      0.95910    
    710.40      0.95936    
    712.67      0.95963    
    714.93      0.95990    
    717.20      0.96017    
    719.47      0.96043    
    721.73      0.96070    
    724.00      0.96096    
    726.27      0.96122    
    728.53      0.96147    
    730.80      0.96173    
    733.07      0.96198    
    735.33      0.96223    
    737.60      0.96247    
    739.87      0.96272    
    742.13      0.96296    
    744.40      0.96320    
    746.67      0.96344    
    748.93      0.96367    
    751.20      0.96391    
    753.47      0.96414    
    755.73      0.96437    
    758.00      0.96459    
    760.27      0.96482    
    762.53      0.96504    
    764.80      0.96526    
    767.07      0.96548    
    769.33      0.96570    
    771.60      0.96591    
    773.87      0.96613    
    776.13      0.96634    
    778.40      0.76072    
    780.67      0.76202    
    782.93      0.76332    
    785.20      0.76460    
    787.47      0.76587    
    789.73      0.76714    
    792.00      0.76839    
    794.27      0.76963    
    796.53      0.77087    
    798.80      0.77210    
    801.07      0.77331    
    803.33      0.77452    
    805.60      0.77572    
    807.87      0.77691    
    810.13      0.77810    
    812.40      0.77927    
    814.67      0.78044    
    816.93      0.78159    
    819.20      0.78274    
    821.47      0.78388    
    823.73      0.78501    
    826.00      0.78614    
    828.27      0.78725    
    830.53      0.78836    
    832.80      0.78946    
    835.07      0.79055    
    837.33      0.79164    
    839.60      0.79271    
    841.87      0.79378    
    844.13      0.79484    
    846.40      0.79589    
    848.67      0.79693    
    850.93      0.79797    
    853.20      0.79903    
    855.47      0.80010    
    857.73      0.80116    
    860.00      0.80221    
    862.27      0.80326    
    864.53      0.80430    
    866.80      0.80535    
    869.07      0.80641    
    871.33      0.80747    
    873.60      0.80851    
    875.87      0.80955    
    878.13      0.81058    
    880.40      0.81162    
    882.67      0.81266    
    884.93      0.81369    
    887.20      0.81471    
    889.47      0.81573    
    891.73      0.81674    
    894.00      0.81762    
    896.27      0.81811    
    898.53      0.81859    
    900.80      0.81907    
    903.07      0.81955    
    905.33      0.82002    
    907.60      0.82049    
    909.87      0.82050    
    912.13      0.82043    
    914.40      0.82036    
    916.67      0.82029    
    918.93      0.82022    
    921.20      0.82014    
    923.47      0.82007    
    925.73      0.82000    
    928.00      0.81993    
    930.27      0.81986    
    932.53      0.81979    
    934.80      0.81972    
    937.07      0.81965    
    939.33      0.82000    
    941.60      0.82046    
    943.87      0.82092    
    946.13      0.82138    
    948.40      0.82183    
    950.67      0.82229    
    952.93      0.82279    
    955.20      0.82374    
    957.47      0.82469    
    959.73      0.82563    
    962.00      0.82656    
    964.27      0.82748    
    966.53      0.82840    
    968.80      0.82932    
    971.07      0.83022    
    973.33      0.83112    
    975.60      0.83201    
    977.87      0.83290    
    980.13      0.83378    
    982.40      0.83465    
    984.67      0.83552    
    986.93      0.83638    
    989.20      0.83723    
    991.47      0.83807    
    993.73      0.83891    
    996.00      0.83975    
    998.27      0.84057    
    1000.5      0.84139    
    1002.8      0.84221    
    1005.1      0.84301    
    1007.3      0.84381    
    1009.6      0.84461    
    1011.9      0.84540    
    1014.1      0.84618    
    1016.4      0.84695    
    1018.7      0.84768    
    1020.9      0.84840    
    1023.2      0.84912    
    1025.5      0.84983    
    1027.7      0.85054    
    1030.0      0.85125    
    1032.3      0.85195    
    1034.5      0.85265    
    1036.8      0.85335    
    1039.1      0.85405    
    1041.3      0.85474    
    1043.6      0.85542    
    1045.9      0.85610    
    1048.1      0.85678    
    1050.4      0.85745    
    1052.7      0.85813    
    1054.9      0.85880    
    1057.2      0.85947    
    1059.5      0.86013    
    1061.7      0.86079    
    1064.0      0.86144    
    1066.3      0.86209    
    1068.5      0.86274    
    1070.8      0.86338    
    1073.1      0.86402    
    1075.3      0.86465    
    1077.6      0.86528    
    1079.9      0.86590    
    1082.1      0.86652    
    1084.4      0.86714    
    1086.7      0.86775    
    1088.9      0.86836    
    1091.2      0.86897    
    1093.5      0.86957    
    1095.7      0.87017    
    1098.0      0.87076    
    1100.3      0.87135    
    1102.5      0.87194    
    1104.8      0.87252    
    1107.1      0.87310    
    1109.3      0.87368    
    1111.6      0.87425    
    1113.9      0.87482    
    1116.1      0.87538    
    1118.4      0.87595    
    1120.7      0.87650    
    1122.9      0.87706    
    1125.2      0.87761    
    1127.5      0.87816    
    1129.7      0.87870    
    1132.0      0.87924    
    1134.3      0.87978    
    1136.5      0.88032    
    1138.8      0.88085    
    1141.1      0.88138    
    1143.3      0.88190    
    1145.6      0.88242    
    1147.9      0.88294    
    1150.1      0.88346    
    1152.4      0.88397    
    1154.7      0.88448    
    1156.9      0.88498    
    1159.2      0.88549    
    1161.5      0.88599    
    1163.7      0.88648    
    1166.0      0.88698    
    1168.3      0.88747    
    1170.5      0.88795    
    1172.8      0.88844    
    1175.1      0.88892    
    1177.3      0.88940    
    1179.6      0.88988    
    1181.9      0.89035    
    1184.1      0.89082    
    1186.4      0.89129    
    1188.7      0.89176    
    1190.9      0.89222    
    1193.2      0.89268    
    1195.5      0.89314    
    1197.7      0.89359    
    1200.0      0.89404    
