 Cr Density=7.19 Thickness=3.00000E-02 microns
 Photon Energy (eV), Transmission
    180.00      0.60710    
    182.27      0.61350    
    184.53      0.61974    
    186.80      0.62584    
    189.07      0.63157    
    191.33      0.63653    
    193.60      0.64117    
    195.87      0.64570    
    198.13      0.65014    
    200.40      0.65449    
    202.67      0.65875    
    204.93      0.66293    
    207.20      0.66702    
    209.47      0.67104    
    211.73      0.67497    
    214.00      0.67883    
    216.27      0.68276    
    218.53      0.68679    
    220.80      0.69103    
    223.07      0.69518    
    225.33      0.69925    
    227.60      0.70323    
    229.87      0.70714    
    232.13      0.71096    
    234.40      0.71471    
    236.67      0.71839    
    238.93      0.72199    
    241.20      0.72553    
    243.47      0.72899    
    245.73      0.73239    
    248.00      0.73572    
    250.27      0.73899    
    252.53      0.74223    
    254.80      0.74544    
    257.07      0.74859    
    259.33      0.75169    
    261.60      0.75472    
    263.87      0.75770    
    266.13      0.76062    
    268.40      0.76349    
    270.67      0.76631    
    272.93      0.76907    
    275.20      0.77179    
    277.47      0.77445    
    279.73      0.77707    
    282.00      0.77970    
    284.27      0.78245    
    286.53      0.78519    
    288.80      0.78801    
    291.07      0.79077    
    293.33      0.79349    
    295.60      0.79615    
    297.87      0.79876    
    300.13      0.80132    
    302.40      0.80383    
    304.67      0.80630    
    306.93      0.80873    
    309.20      0.81111    
    311.47      0.81348    
    313.73      0.81583    
    316.00      0.81813    
    318.27      0.82039    
    320.53      0.82261    
    322.80      0.82479    
    325.07      0.82693    
    327.33      0.82903    
    329.60      0.83109    
    331.87      0.83312    
    334.13      0.83512    
    336.40      0.83707    
    338.67      0.83900    
    340.93      0.84089    
    343.20      0.84288    
    345.47      0.84485    
    347.73      0.84688    
    350.00      0.84898    
    352.27      0.85103    
    354.53      0.85305    
    356.80      0.85504    
    359.07      0.85698    
    361.33      0.85889    
    363.60      0.86076    
    365.87      0.86260    
    368.13      0.86441    
    370.40      0.86618    
    372.67      0.86792    
    374.93      0.86963    
    377.20      0.87130    
    379.47      0.87294    
    381.73      0.87455    
    384.00      0.87606    
    386.27      0.87755    
    388.53      0.87901    
    390.80      0.88045    
    393.07      0.88186    
    395.33      0.88325    
    397.60      0.88462    
    399.87      0.88596    
    402.13      0.88728    
    404.40      0.88858    
    406.67      0.88986    
    408.93      0.89112    
    411.20      0.89236    
    413.47      0.89358    
    415.73      0.89467    
    418.00      0.89574    
    420.27      0.89680    
    422.53      0.89778    
    424.80      0.89875    
    427.07      0.89971    
    429.33      0.90065    
    431.60      0.90158    
    433.87      0.90250    
    436.13      0.90340    
    438.40      0.90429    
    440.67      0.90517    
    442.93      0.90604    
    445.20      0.90689    
    447.47      0.90773    
    449.73      0.90857    
    452.00      0.90939    
    454.27      0.91020    
    456.53      0.91099    
    458.80      0.91178    
    461.07      0.91256    
    463.33      0.91333    
    465.60      0.91411    
    467.87      0.91487    
    470.13      0.91563    
    472.40      0.91638    
    474.67      0.91712    
    476.93      0.91785    
    479.20      0.91857    
    481.47      0.91928    
    483.73      0.91998    
    486.00      0.92067    
    488.27      0.92135    
    490.53      0.92203    
    492.80      0.92270    
    495.07      0.92336    
    497.33      0.92402    
    499.60      0.92467    
    501.87      0.92531    
    504.13      0.92597    
    506.40      0.92661    
    508.67      0.92725    
    510.93      0.92788    
    513.20      0.92850    
    515.47      0.92912    
    517.73      0.92972    
    520.00      0.93032    
    522.27      0.93091    
    524.53      0.93150    
    526.80      0.93207    
    529.07      0.93264    
    531.33      0.93321    
    533.60      0.93376    
    535.87      0.93433    
    538.13      0.93492    
    540.40      0.93550    
    542.67      0.93607    
    544.93      0.93665    
    547.20      0.93722    
    549.47      0.93779    
    551.73      0.93835    
    554.00      0.93890    
    556.27      0.93944    
    558.53      0.93998    
    560.80      0.94051    
    563.07      0.94104    
    565.33      0.94156    
    567.60      0.94207    
    569.87      0.94258    
    572.13      0.94307    
    574.40      0.59722    
    576.67      0.60063    
    578.93      0.60402    
    581.20      0.60737    
    583.47      0.61070    
    585.73      0.61399    
    588.00      0.61725    
    590.27      0.62048    
    592.53      0.62368    
    594.80      0.62684    
    597.07      0.62998    
    599.33      0.63309    
    601.60      0.63617    
    603.87      0.63922    
    606.13      0.64224    
    608.40      0.64523    
    610.67      0.64819    
    612.93      0.65113    
    615.20      0.65403    
    617.47      0.65691    
    619.73      0.65976    
    622.00      0.66258    
    624.27      0.66538    
    626.53      0.66815    
    628.80      0.67074    
    631.07      0.67312    
    633.33      0.67548    
    635.60      0.67782    
    637.87      0.68014    
    640.13      0.68186    
    642.40      0.68356    
    644.67      0.68525    
    646.93      0.68692    
    649.20      0.68858    
    651.47      0.69022    
    653.73      0.69186    
    656.00      0.69348    
    658.27      0.69509    
    660.53      0.69645    
    662.80      0.69773    
    665.07      0.69901    
    667.33      0.70028    
    669.60      0.70147    
    671.87      0.70205    
    674.13      0.70262    
    676.40      0.70320    
    678.67      0.70377    
    680.93      0.70434    
    683.20      0.70490    
    685.47      0.70546    
    687.73      0.70602    
    690.00      0.70658    
    692.27      0.70714    
    694.53      0.70769    
    696.80      0.70824    
    699.07      0.70878    
    701.33      0.70933    
    703.60      0.70987    
    705.87      0.71041    
    708.13      0.71095    
    710.40      0.71148    
    712.67      0.71201    
    714.93      0.71254    
    717.20      0.71307    
    719.47      0.71359    
    721.73      0.71411    
    724.00      0.71463    
    726.27      0.71534    
    728.53      0.71629    
    730.80      0.71724    
    733.07      0.71818    
    735.33      0.71911    
    737.60      0.72019    
    739.87      0.72169    
    742.13      0.72317    
    744.40      0.72465    
    746.67      0.72611    
    748.93      0.72756    
    751.20      0.72900    
    753.47      0.73044    
    755.73      0.73186    
    758.00      0.73327    
    760.27      0.73467    
    762.53      0.73606    
    764.80      0.73744    
    767.07      0.73881    
    769.33      0.74017    
    771.60      0.74152    
    773.87      0.74286    
    776.13      0.74420    
    778.40      0.74552    
    780.67      0.74683    
    782.93      0.74813    
    785.20      0.74943    
    787.47      0.75071    
    789.73      0.75199    
    792.00      0.75326    
    794.27      0.75451    
    796.53      0.75576    
    798.80      0.75700    
    801.07      0.75823    
    803.33      0.75946    
    805.60      0.76067    
    807.87      0.76188    
    810.13      0.76308    
    812.40      0.76426    
    814.67      0.76544    
    816.93      0.76662    
    819.20      0.76778    
    821.47      0.76894    
    823.73      0.77008    
    826.00      0.77128    
    828.27      0.77250    
    830.53      0.77371    
    832.80      0.77491    
    835.07      0.77610    
    837.33      0.77728    
    839.60      0.77862    
    841.87      0.78001    
    844.13      0.78138    
    846.40      0.78275    
    848.67      0.78410    
    850.93      0.78544    
    853.20      0.78678    
    855.47      0.78810    
    857.73      0.78941    
    860.00      0.79071    
    862.27      0.79200    
    864.53      0.79328    
    866.80      0.79455    
    869.07      0.79581    
    871.33      0.79706    
    873.60      0.79830    
    875.87      0.79953    
    878.13      0.80075    
    880.40      0.80196    
    882.67      0.80316    
    884.93      0.80435    
    887.20      0.80553    
    889.47      0.80671    
    891.73      0.80787    
    894.00      0.80901    
    896.27      0.81009    
    898.53      0.81115    
    900.80      0.81221    
    903.07      0.81326    
    905.33      0.81431    
    907.60      0.81535    
    909.87      0.81635    
    912.13      0.81735    
    914.40      0.81833    
    916.67      0.81931    
    918.93      0.82029    
    921.20      0.82125    
    923.47      0.82221    
    925.73      0.82316    
    928.00      0.82411    
    930.27      0.82505    
    932.53      0.82598    
    934.80      0.82690    
    937.07      0.82782    
    939.33      0.82873    
    941.60      0.82964    
    943.87      0.83054    
    946.13      0.83143    
    948.40      0.83231    
    950.67      0.83319    
    952.93      0.83407    
    955.20      0.83499    
    957.47      0.83589    
    959.73      0.83679    
    962.00      0.83769    
    964.27      0.83857    
    966.53      0.83946    
    968.80      0.84033    
    971.07      0.84122    
    973.33      0.84210    
    975.60      0.84297    
    977.87      0.84383    
    980.13      0.84469    
    982.40      0.84554    
    984.67      0.84639    
    986.93      0.84723    
    989.20      0.84806    
    991.47      0.84889    
    993.73      0.84971    
    996.00      0.85053    
    998.27      0.85134    
    1000.5      0.85213    
    1002.8      0.85290    
    1005.1      0.85367    
    1007.3      0.85443    
    1009.6      0.85518    
    1011.9      0.85593    
    1014.1      0.85667    
    1016.4      0.85741    
    1018.7      0.85812    
    1020.9      0.85883    
    1023.2      0.85953    
    1025.5      0.86023    
    1027.7      0.86092    
    1030.0      0.86161    
    1032.3      0.86230    
    1034.5      0.86298    
    1036.8      0.86367    
    1039.1      0.86434    
    1041.3      0.86501    
    1043.6      0.86568    
    1045.9      0.86634    
    1048.1      0.86700    
    1050.4      0.86766    
    1052.7      0.86832    
    1054.9      0.86897    
    1057.2      0.86961    
    1059.5      0.87026    
    1061.7      0.87089    
    1064.0      0.87153    
    1066.3      0.87216    
    1068.5      0.87278    
    1070.8      0.87341    
    1073.1      0.87402    
    1075.3      0.87464    
    1077.6      0.87525    
    1079.9      0.87585    
    1082.1      0.87645    
    1084.4      0.87705    
    1086.7      0.87764    
    1088.9      0.87823    
    1091.2      0.87882    
    1093.5      0.87940    
    1095.7      0.87998    
    1098.0      0.88055    
    1100.3      0.88112    
    1102.5      0.88169    
    1104.8      0.88225    
    1107.1      0.88281    
    1109.3      0.88337    
    1111.6      0.88392    
    1113.9      0.88447    
    1116.1      0.88502    
    1118.4      0.88556    
    1120.7      0.88610    
    1122.9      0.88663    
    1125.2      0.88716    
    1127.5      0.88769    
    1129.7      0.88821    
    1132.0      0.88874    
    1134.3      0.88925    
    1136.5      0.88977    
    1138.8      0.89028    
    1141.1      0.89079    
    1143.3      0.89129    
    1145.6      0.89179    
    1147.9      0.89229    
    1150.1      0.89279    
    1152.4      0.89328    
    1154.7      0.89377    
    1156.9      0.89426    
    1159.2      0.89474    
    1161.5      0.89522    
    1163.7      0.89570    
    1166.0      0.89617    
    1168.3      0.89664    
    1170.5      0.89711    
    1172.8      0.89758    
    1175.1      0.89804    
    1177.3      0.89850    
    1179.6      0.89896    
    1181.9      0.89941    
    1184.1      0.89986    
    1186.4      0.90031    
    1188.7      0.90076    
    1190.9      0.90120    
    1193.2      0.90164    
    1195.5      0.90208    
    1197.7      0.90251    
    1200.0      0.90294    
