 Cu Density=8.96 Thickness=2.00000E-02 microns
 Photon Energy (eV), Transmission
    180.00      0.45786    
    182.27      0.46450    
    184.53      0.47103    
    186.80      0.47745    
    189.07      0.48376    
    191.33      0.48997    
    193.60      0.49607    
    195.87      0.50207    
    198.13      0.50808    
    200.40      0.51451    
    202.67      0.52103    
    204.93      0.52750    
    207.20      0.53386    
    209.47      0.54010    
    211.73      0.54624    
    214.00      0.55226    
    216.27      0.55797    
    218.53      0.56355    
    220.80      0.56902    
    223.07      0.57440    
    225.33      0.57968    
    227.60      0.58487    
    229.87      0.58996    
    232.13      0.59498    
    234.40      0.59990    
    236.67      0.60474    
    238.93      0.60949    
    241.20      0.61416    
    243.47      0.61875    
    245.73      0.62350    
    248.00      0.62818    
    250.27      0.63280    
    252.53      0.63733    
    254.80      0.64178    
    257.07      0.64616    
    259.33      0.65046    
    261.60      0.65469    
    263.87      0.65885    
    266.13      0.66293    
    268.40      0.66694    
    270.67      0.67089    
    272.93      0.67477    
    275.20      0.67858    
    277.47      0.68233    
    279.73      0.68601    
    282.00      0.68963    
    284.27      0.69320    
    286.53      0.69670    
    288.80      0.70014    
    291.07      0.70353    
    293.33      0.70686    
    295.60      0.71014    
    297.87      0.71337    
    300.13      0.71654    
    302.40      0.71970    
    304.67      0.72281    
    306.93      0.72601    
    309.20      0.72918    
    311.47      0.73229    
    313.73      0.73536    
    316.00      0.73837    
    318.27      0.74134    
    320.53      0.74425    
    322.80      0.74712    
    325.07      0.74994    
    327.33      0.75272    
    329.60      0.75545    
    331.87      0.75814    
    334.13      0.76079    
    336.40      0.76340    
    338.67      0.76596    
    340.93      0.76848    
    343.20      0.77097    
    345.47      0.77341    
    347.73      0.77582    
    350.00      0.77819    
    352.27      0.78052    
    354.53      0.78282    
    356.80      0.78508    
    359.07      0.78733    
    361.33      0.78955    
    363.60      0.79173    
    365.87      0.79390    
    368.13      0.79604    
    370.40      0.79814    
    372.67      0.80021    
    374.93      0.80225    
    377.20      0.80426    
    379.47      0.80625    
    381.73      0.80820    
    384.00      0.81012    
    386.27      0.81202    
    388.53      0.81388    
    390.80      0.81572    
    393.07      0.81754    
    395.33      0.81932    
    397.60      0.82109    
    399.87      0.82282    
    402.13      0.82453    
    404.40      0.82622    
    406.67      0.82789    
    408.93      0.82964    
    411.20      0.83138    
    413.47      0.83310    
    415.73      0.83495    
    418.00      0.83679    
    420.27      0.83859    
    422.53      0.84037    
    424.80      0.84213    
    427.07      0.84385    
    429.33      0.84555    
    431.60      0.84722    
    433.87      0.84887    
    436.13      0.85050    
    438.40      0.85210    
    440.67      0.85367    
    442.93      0.85522    
    445.20      0.85675    
    447.47      0.85826    
    449.73      0.85975    
    452.00      0.86121    
    454.27      0.86265    
    456.53      0.86405    
    458.80      0.86539    
    461.07      0.86671    
    463.33      0.86797    
    465.60      0.86906    
    467.87      0.87015    
    470.13      0.87121    
    472.40      0.87227    
    474.67      0.87331    
    476.93      0.87434    
    479.20      0.87535    
    481.47      0.87636    
    483.73      0.87735    
    486.00      0.87833    
    488.27      0.87930    
    490.53      0.88026    
    492.80      0.88120    
    495.07      0.88213    
    497.33      0.88306    
    499.60      0.88397    
    501.87      0.88488    
    504.13      0.88580    
    506.40      0.88671    
    508.67      0.88761    
    510.93      0.88855    
    513.20      0.88953    
    515.47      0.89049    
    517.73      0.89143    
    520.00      0.89237    
    522.27      0.89330    
    524.53      0.89421    
    526.80      0.89511    
    529.07      0.89600    
    531.33      0.89688    
    533.60      0.89775    
    535.87      0.89861    
    538.13      0.89946    
    540.40      0.90030    
    542.67      0.90113    
    544.93      0.90194    
    547.20      0.90275    
    549.47      0.90355    
    551.73      0.90434    
    554.00      0.90512    
    556.27      0.90589    
    558.53      0.90665    
    560.80      0.90741    
    563.07      0.90815    
    565.33      0.90889    
    567.60      0.90961    
    569.87      0.91033    
    572.13      0.91104    
    574.40      0.91174    
    576.67      0.91244    
    578.93      0.91312    
    581.20      0.91384    
    583.47      0.91455    
    585.73      0.91525    
    588.00      0.91595    
    590.27      0.91665    
    592.53      0.91734    
    594.80      0.91803    
    597.07      0.91871    
    599.33      0.91938    
    601.60      0.92005    
    603.87      0.92070    
    606.13      0.92135    
    608.40      0.92199    
    610.67      0.92263    
    612.93      0.92325    
    615.20      0.92387    
    617.47      0.92449    
    619.73      0.92509    
    622.00      0.92569    
    624.27      0.92628    
    626.53      0.92687    
    628.80      0.92745    
    631.07      0.92802    
    633.33      0.92859    
    635.60      0.92915    
    637.87      0.92970    
    640.13      0.93026    
    642.40      0.93081    
    644.67      0.93135    
    646.93      0.93189    
    649.20      0.93243    
    651.47      0.93298    
    653.73      0.93352    
    656.00      0.93406    
    658.27      0.93459    
    660.53      0.93511    
    662.80      0.93563    
    665.07      0.93614    
    667.33      0.93665    
    669.60      0.93715    
    671.87      0.93765    
    674.13      0.93814    
    676.40      0.93862    
    678.67      0.93910    
    680.93      0.93958    
    683.20      0.94005    
    685.47      0.94051    
    687.73      0.94097    
    690.00      0.94142    
    692.27      0.94187    
    694.53      0.94232    
    696.80      0.94276    
    699.07      0.94319    
    701.33      0.94362    
    703.60      0.94403    
    705.87      0.94441    
    708.13      0.94479    
    710.40      0.94516    
    712.67      0.94553    
    714.93      0.94588    
    717.20      0.94621    
    719.47      0.94654    
    721.73      0.94686    
    724.00      0.94718    
    726.27      0.94750    
    728.53      0.94781    
    730.80      0.94813    
    733.07      0.94844    
    735.33      0.94874    
    737.60      0.94905    
    739.87      0.94935    
    742.13      0.94965    
    744.40      0.94994    
    746.67      0.95023    
    748.93      0.95053    
    751.20      0.95081    
    753.47      0.95110    
    755.73      0.95138    
    758.00      0.95166    
    760.27      0.95194    
    762.53      0.95222    
    764.80      0.95249    
    767.07      0.95276    
    769.33      0.95303    
    771.60      0.95330    
    773.87      0.95357    
    776.13      0.95384    
    778.40      0.95412    
    780.67      0.95439    
    782.93      0.95466    
    785.20      0.95493    
    787.47      0.95521    
    789.73      0.95550    
    792.00      0.95579    
    794.27      0.95608    
    796.53      0.95636    
    798.80      0.95664    
    801.07      0.95692    
    803.33      0.95719    
    805.60      0.95746    
    807.87      0.95773    
    810.13      0.95800    
    812.40      0.95827    
    814.67      0.95853    
    816.93      0.95879    
    819.20      0.95905    
    821.47      0.95931    
    823.73      0.95956    
    826.00      0.95981    
    828.27      0.96006    
    830.53      0.96031    
    832.80      0.96055    
    835.07      0.96079    
    837.33      0.96104    
    839.60      0.96127    
    841.87      0.96151    
    844.13      0.96175    
    846.40      0.96198    
    848.67      0.96221    
    850.93      0.96244    
    853.20      0.96271    
    855.47      0.96300    
    857.73      0.96328    
    860.00      0.96356    
    862.27      0.96384    
    864.53      0.96411    
    866.80      0.96439    
    869.07      0.96467    
    871.33      0.96494    
    873.60      0.96522    
    875.87      0.96549    
    878.13      0.96575    
    880.40      0.96601    
    882.67      0.96625    
    884.93      0.96650    
    887.20      0.96674    
    889.47      0.96698    
    891.73      0.96721    
    894.00      0.96744    
    896.27      0.96764    
    898.53      0.96785    
    900.80      0.96805    
    903.07      0.96824    
    905.33      0.96844    
    907.60      0.96863    
    909.87      0.96903    
    912.13      0.96946    
    914.40      0.96989    
    916.67      0.97030    
    918.93      0.97071    
    921.20      0.97111    
    923.47      0.97151    
    925.73      0.97190    
    928.00      0.97228    
    930.27      0.97266    
    932.53      0.89156    
    934.80      0.79174    
    937.07      0.79303    
    939.33      0.79430    
    941.60      0.79557    
    943.87      0.79683    
    946.13      0.79808    
    948.40      0.79932    
    950.67      0.80054    
    952.93      0.80176    
    955.20      0.80297    
    957.47      0.80418    
    959.73      0.80537    
    962.00      0.80655    
    964.27      0.80772    
    966.53      0.80889    
    968.80      0.81004    
    971.07      0.81119    
    973.33      0.81233    
    975.60      0.81346    
    977.87      0.81458    
    980.13      0.81569    
    982.40      0.81679    
    984.67      0.81789    
    986.93      0.81897    
    989.20      0.82005    
    991.47      0.82112    
    993.73      0.82218    
    996.00      0.82324    
    998.27      0.82428    
    1000.5      0.82532    
    1002.8      0.82635    
    1005.1      0.82738    
    1007.3      0.82839    
    1009.6      0.82940    
    1011.9      0.83040    
    1014.1      0.83139    
    1016.4      0.83238    
    1018.7      0.83335    
    1020.9      0.83432    
    1023.2      0.83529    
    1025.5      0.83624    
    1027.7      0.83719    
    1030.0      0.83814    
    1032.3      0.83907    
    1034.5      0.83982    
    1036.8      0.84056    
    1039.1      0.84130    
    1041.3      0.84203    
    1043.6      0.84276    
    1045.9      0.84349    
    1048.1      0.84420    
    1050.4      0.84480    
    1052.7      0.84532    
    1054.9      0.84584    
    1057.2      0.84636    
    1059.5      0.84687    
    1061.7      0.84738    
    1064.0      0.84789    
    1066.3      0.84840    
    1068.5      0.84890    
    1070.8      0.84940    
    1073.1      0.84990    
    1075.3      0.85039    
    1077.6      0.85089    
    1079.9      0.85138    
    1082.1      0.85186    
    1084.4      0.85235    
    1086.7      0.85283    
    1088.9      0.85331    
    1091.2      0.85379    
    1093.5      0.85427    
    1095.7      0.85474    
    1098.0      0.85521    
    1100.3      0.85568    
    1102.5      0.85614    
    1104.8      0.85661    
    1107.1      0.85707    
    1109.3      0.85753    
    1111.6      0.85798    
    1113.9      0.85844    
    1116.1      0.85889    
    1118.4      0.85934    
    1120.7      0.85979    
    1122.9      0.86023    
    1125.2      0.86068    
    1127.5      0.86112    
    1129.7      0.86156    
    1132.0      0.86200    
    1134.3      0.86243    
    1136.5      0.86286    
    1138.8      0.86329    
    1141.1      0.86372    
    1143.3      0.86415    
    1145.6      0.86457    
    1147.9      0.86500    
    1150.1      0.86542    
    1152.4      0.86583    
    1154.7      0.86625    
    1156.9      0.86666    
    1159.2      0.86708    
    1161.5      0.86749    
    1163.7      0.86790    
    1166.0      0.86830    
    1168.3      0.86871    
    1170.5      0.86911    
    1172.8      0.86951    
    1175.1      0.86991    
    1177.3      0.87030    
    1179.6      0.87070    
    1181.9      0.87109    
    1184.1      0.87148    
    1186.4      0.87187    
    1188.7      0.87226    
    1190.9      0.87265    
    1193.2      0.87303    
    1195.5      0.87341    
    1197.7      0.87379    
    1200.0      0.87417    
