 Fe Density=7.874 Thickness=2.00000E-02 microns
 Photon Energy (eV), Transmission
    180.00      0.60683    
    182.27      0.61147    
    184.53      0.61601    
    186.80      0.62047    
    189.07      0.62492    
    191.33      0.62951    
    193.60      0.63546    
    195.87      0.64138    
    198.13      0.64716    
    200.40      0.65281    
    202.67      0.65834    
    204.93      0.66374    
    207.20      0.66902    
    209.47      0.67419    
    211.73      0.67924    
    214.00      0.68417    
    216.27      0.68900    
    218.53      0.69372    
    220.80      0.69834    
    223.07      0.70284    
    225.33      0.70705    
    227.60      0.71054    
    229.87      0.71397    
    232.13      0.71733    
    234.40      0.72063    
    236.67      0.72387    
    238.93      0.72705    
    241.20      0.73017    
    243.47      0.73323    
    245.73      0.73623    
    248.00      0.73918    
    250.27      0.74208    
    252.53      0.74493    
    254.80      0.74772    
    257.07      0.75046    
    259.33      0.75316    
    261.60      0.75581    
    263.87      0.75841    
    266.13      0.76097    
    268.40      0.76348    
    270.67      0.76595    
    272.93      0.76841    
    275.20      0.77099    
    277.47      0.77366    
    279.73      0.77675    
    282.00      0.77978    
    284.27      0.78275    
    286.53      0.78566    
    288.80      0.78851    
    291.07      0.79131    
    293.33      0.79406    
    295.60      0.79675    
    297.87      0.79939    
    300.13      0.80199    
    302.40      0.80453    
    304.67      0.80703    
    306.93      0.80948    
    309.20      0.81189    
    311.47      0.81425    
    313.73      0.81657    
    316.00      0.81885    
    318.27      0.82108    
    320.53      0.82328    
    322.80      0.82543    
    325.07      0.82755    
    327.33      0.82963    
    329.60      0.83168    
    331.87      0.83369    
    334.13      0.83566    
    336.40      0.83772    
    338.67      0.84007    
    340.93      0.84236    
    343.20      0.84462    
    345.47      0.84684    
    347.73      0.84901    
    350.00      0.85115    
    352.27      0.85324    
    354.53      0.85529    
    356.80      0.85731    
    359.07      0.85928    
    361.33      0.86122    
    363.60      0.86312    
    365.87      0.86498    
    368.13      0.86682    
    370.40      0.86861    
    372.67      0.87038    
    374.93      0.87211    
    377.20      0.87381    
    379.47      0.87548    
    381.73      0.87711    
    384.00      0.87853    
    386.27      0.87992    
    388.53      0.88127    
    390.80      0.88256    
    393.07      0.88382    
    395.33      0.88509    
    397.60      0.88637    
    399.87      0.88763    
    402.13      0.88894    
    404.40      0.89026    
    406.67      0.89156    
    408.93      0.89284    
    411.20      0.89409    
    413.47      0.89533    
    415.73      0.89654    
    418.00      0.89773    
    420.27      0.89891    
    422.53      0.90006    
    424.80      0.90120    
    427.07      0.90232    
    429.33      0.90342    
    431.60      0.90451    
    433.87      0.90557    
    436.13      0.90663    
    438.40      0.90766    
    440.67      0.90868    
    442.93      0.90968    
    445.20      0.91066    
    447.47      0.91164    
    449.73      0.91259    
    452.00      0.91353    
    454.27      0.91446    
    456.53      0.91538    
    458.80      0.91627    
    461.07      0.91716    
    463.33      0.91803    
    465.60      0.91889    
    467.87      0.91974    
    470.13      0.92058    
    472.40      0.92140    
    474.67      0.92221    
    476.93      0.92301    
    479.20      0.92379    
    481.47      0.92457    
    483.73      0.92533    
    486.00      0.92609    
    488.27      0.92683    
    490.53      0.92757    
    492.80      0.92829    
    495.07      0.92901    
    497.33      0.92971    
    499.60      0.93041    
    501.87      0.93110    
    504.13      0.93177    
    506.40      0.93244    
    508.67      0.93310    
    510.93      0.93375    
    513.20      0.93439    
    515.47      0.93502    
    517.73      0.93565    
    520.00      0.93626    
    522.27      0.93687    
    524.53      0.93747    
    526.80      0.93806    
    529.07      0.93864    
    531.33      0.93921    
    533.60      0.93978    
    535.87      0.94034    
    538.13      0.94089    
    540.40      0.94144    
    542.67      0.94198    
    544.93      0.94251    
    547.20      0.94303    
    549.47      0.94355    
    551.73      0.94406    
    554.00      0.94456    
    556.27      0.94506    
    558.53      0.94555    
    560.80      0.94604    
    563.07      0.94652    
    565.33      0.94699    
    567.60      0.94746    
    569.87      0.94792    
    572.13      0.94837    
    574.40      0.94882    
    576.67      0.94927    
    578.93      0.94971    
    581.20      0.95014    
    583.47      0.95057    
    585.73      0.95099    
    588.00      0.95141    
    590.27      0.95180    
    592.53      0.95219    
    594.80      0.95257    
    597.07      0.95294    
    599.33      0.95330    
    601.60      0.95365    
    603.87      0.95400    
    606.13      0.95434    
    608.40      0.95468    
    610.67      0.95502    
    612.93      0.95535    
    615.20      0.95568    
    617.47      0.95600    
    619.73      0.95633    
    622.00      0.95664    
    624.27      0.95696    
    626.53      0.95727    
    628.80      0.95759    
    631.07      0.95790    
    633.33      0.95822    
    635.60      0.95853    
    637.87      0.95883    
    640.13      0.95916    
    642.40      0.95947    
    644.67      0.95979    
    646.93      0.96010    
    649.20      0.96041    
    651.47      0.96072    
    653.73      0.96104    
    656.00      0.96134    
    658.27      0.96165    
    660.53      0.96195    
    662.80      0.96225    
    665.07      0.96254    
    667.33      0.96283    
    669.60      0.96312    
    671.87      0.96338    
    674.13      0.96364    
    676.40      0.96390    
    678.67      0.96415    
    680.93      0.96440    
    683.20      0.96463    
    685.47      0.96486    
    687.73      0.96509    
    690.00      0.96532    
    692.27      0.96554    
    694.53      0.96576    
    696.80      0.96598    
    699.07      0.96619    
    701.33      0.96640    
    703.60      0.96661    
    705.87      0.96682    
    708.13      0.75233    
    710.40      0.75395    
    712.67      0.75556    
    714.93      0.75715    
    717.20      0.75873    
    719.47      0.76029    
    721.73      0.76184    
    724.00      0.76338    
    726.27      0.76491    
    728.53      0.76642    
    730.80      0.76792    
    733.07      0.76941    
    735.33      0.77088    
    737.60      0.77234    
    739.87      0.77379    
    742.13      0.77523    
    744.40      0.77666    
    746.67      0.77807    
    748.93      0.77947    
    751.20      0.78086    
    753.47      0.78223    
    755.73      0.78360    
    758.00      0.78495    
    760.27      0.78630    
    762.53      0.78763    
    764.80      0.78895    
    767.07      0.79026    
    769.33      0.79155    
    771.60      0.79284    
    773.87      0.79412    
    776.13      0.79537    
    778.40      0.79661    
    780.67      0.79785    
    782.93      0.79907    
    785.20      0.80028    
    787.47      0.80145    
    789.73      0.80260    
    792.00      0.80374    
    794.27      0.80486    
    796.53      0.80598    
    798.80      0.80702    
    801.07      0.80735    
    803.33      0.80768    
    805.60      0.80801    
    807.87      0.80834    
    810.13      0.80867    
    812.40      0.80900    
    814.67      0.80932    
    816.93      0.80965    
    819.20      0.80997    
    821.47      0.81029    
    823.73      0.81061    
    826.00      0.81093    
    828.27      0.81125    
    830.53      0.81156    
    832.80      0.81188    
    835.07      0.81219    
    837.33      0.81250    
    839.60      0.81281    
    841.87      0.81312    
    844.13      0.81343    
    846.40      0.81374    
    848.67      0.81404    
    850.93      0.81435    
    853.20      0.81495    
    855.47      0.81566    
    857.73      0.81636    
    860.00      0.81705    
    862.27      0.81774    
    864.53      0.81843    
    866.80      0.81934    
    869.07      0.82037    
    871.33      0.82139    
    873.60      0.82239    
    875.87      0.82340    
    878.13      0.82439    
    880.40      0.82538    
    882.67      0.82635    
    884.93      0.82733    
    887.20      0.82829    
    889.47      0.82925    
    891.73      0.83020    
    894.00      0.83114    
    896.27      0.83207    
    898.53      0.83300    
    900.80      0.83392    
    903.07      0.83484    
    905.33      0.83575    
    907.60      0.83665    
    909.87      0.83754    
    912.13      0.83843    
    914.40      0.83931    
    916.67      0.84019    
    918.93      0.84106    
    921.20      0.84192    
    923.47      0.84277    
    925.73      0.84360    
    928.00      0.84443    
    930.27      0.84525    
    932.53      0.84606    
    934.80      0.84687    
    937.07      0.84767    
    939.33      0.84847    
    941.60      0.84925    
    943.87      0.85003    
    946.13      0.85081    
    948.40      0.85158    
    950.67      0.85234    
    952.93      0.85310    
    955.20      0.85385    
    957.47      0.85460    
    959.73      0.85534    
    962.00      0.85607    
    964.27      0.85680    
    966.53      0.85752    
    968.80      0.85824    
    971.07      0.85896    
    973.33      0.85967    
    975.60      0.86037    
    977.87      0.86107    
    980.13      0.86176    
    982.40      0.86245    
    984.67      0.86314    
    986.93      0.86382    
    989.20      0.86450    
    991.47      0.86517    
    993.73      0.86584    
    996.00      0.86650    
    998.27      0.86716    
    1000.5      0.86781    
    1002.8      0.86846    
    1005.1      0.86911    
    1007.3      0.86975    
    1009.6      0.87038    
    1011.9      0.87102    
    1014.1      0.87165    
    1016.4      0.87227    
    1018.7      0.87290    
    1020.9      0.87352    
    1023.2      0.87413    
    1025.5      0.87474    
    1027.7      0.87535    
    1030.0      0.87596    
    1032.3      0.87656    
    1034.5      0.87716    
    1036.8      0.87775    
    1039.1      0.87835    
    1041.3      0.87894    
    1043.6      0.87952    
    1045.9      0.88010    
    1048.1      0.88068    
    1050.4      0.88126    
    1052.7      0.88184    
    1054.9      0.88241    
    1057.2      0.88298    
    1059.5      0.88354    
    1061.7      0.88411    
    1064.0      0.88466    
    1066.3      0.88522    
    1068.5      0.88577    
    1070.8      0.88631    
    1073.1      0.88686    
    1075.3      0.88740    
    1077.6      0.88793    
    1079.9      0.88847    
    1082.1      0.88900    
    1084.4      0.88952    
    1086.7      0.89004    
    1088.9      0.89056    
    1091.2      0.89108    
    1093.5      0.89159    
    1095.7      0.89210    
    1098.0      0.89260    
    1100.3      0.89311    
    1102.5      0.89361    
    1104.8      0.89410    
    1107.1      0.89459    
    1109.3      0.89508    
    1111.6      0.89557    
    1113.9      0.89605    
    1116.1      0.89653    
    1118.4      0.89701    
    1120.7      0.89749    
    1122.9      0.89796    
    1125.2      0.89842    
    1127.5      0.89889    
    1129.7      0.89935    
    1132.0      0.89981    
    1134.3      0.90027    
    1136.5      0.90072    
    1138.8      0.90117    
    1141.1      0.90162    
    1143.3      0.90207    
    1145.6      0.90251    
    1147.9      0.90295    
    1150.1      0.90338    
    1152.4      0.90382    
    1154.7      0.90425    
    1156.9      0.90468    
    1159.2      0.90510    
    1161.5      0.90553    
    1163.7      0.90595    
    1166.0      0.90637    
    1168.3      0.90678    
    1170.5      0.90719    
    1172.8      0.90761    
    1175.1      0.90801    
    1177.3      0.90842    
    1179.6      0.90882    
    1181.9      0.90922    
    1184.1      0.90962    
    1186.4      0.91002    
    1188.7      0.91041    
    1190.9      0.91080    
    1193.2      0.91119    
    1195.5      0.91158    
    1197.7      0.91196    
    1200.0      0.91234    
