 Si3N4 Density=3.44 Thickness=0.2 microns
 Photon Energy (eV), Transmission
    180.00      0.27866E-01
    182.27      0.29911E-01
    184.53      0.32032E-01
    186.80      0.34236E-01
    189.07      0.36535E-01
    191.33      0.38994E-01
    193.60      0.41533E-01
    195.87      0.44150E-01
    198.13      0.46843E-01
    200.40      0.49612E-01
    202.67      0.52378E-01
    204.93      0.55142E-01
    207.20      0.57894E-01
    209.47      0.60701E-01
    211.73      0.63561E-01
    214.00      0.66471E-01
    216.27      0.69431E-01
    218.53      0.72453E-01
    220.80      0.75613E-01
    223.07      0.79175E-01
    225.33      0.83048E-01
    227.60      0.86992E-01
    229.87      0.91002E-01
    232.13      0.95076E-01
    234.40      0.99211E-01
    236.67      0.10340    
    238.93      0.10765    
    241.20      0.11195    
    243.47      0.11630    
    245.73      0.12070    
    248.00      0.12514    
    250.27      0.12992    
    252.53      0.13477    
    254.80      0.13971    
    257.07      0.14469    
    259.33      0.14971    
    261.60      0.15477    
    263.87      0.15986    
    266.13      0.16497    
    268.40      0.17012    
    270.67      0.17529    
    272.93      0.18048    
    275.20      0.18569    
    277.47      0.19091    
    279.73      0.19615    
    282.00      0.20140    
    284.27      0.20666    
    286.53      0.21192    
    288.80      0.21719    
    291.07      0.22246    
    293.33      0.22773    
    295.60      0.23300    
    297.87      0.23838    
    300.13      0.24378    
    302.40      0.24924    
    304.67      0.25473    
    306.93      0.26021    
    309.20      0.26568    
    311.47      0.27118    
    313.73      0.27668    
    316.00      0.28217    
    318.27      0.28767    
    320.53      0.29315    
    322.80      0.29861    
    325.07      0.30405    
    327.33      0.30946    
    329.60      0.31485    
    331.87      0.32021    
    334.13      0.32555    
    336.40      0.33086    
    338.67      0.33614    
    340.93      0.34139    
    343.20      0.34661    
    345.47      0.35179    
    347.73      0.35695    
    350.00      0.36208    
    352.27      0.36717    
    354.53      0.37223    
    356.80      0.37725    
    359.07      0.38224    
    361.33      0.38719    
    363.60      0.39211    
    365.87      0.39728    
    368.13      0.40265    
    370.40      0.40798    
    372.67      0.41340    
    374.93      0.41878    
    377.20      0.42412    
    379.47      0.42942    
    381.73      0.43467    
    384.00      0.43988    
    386.27      0.44504    
    388.53      0.45016    
    390.80      0.45524    
    393.07      0.46027    
    395.33      0.46526    
    397.60      0.47020    
    399.87      0.47509    
    402.13      0.47994    
    404.40      0.48475    
    406.67      0.48951    
    408.93      0.49422    
    411.20      0.22262    
    413.47      0.22696    
    415.73      0.23129    
    418.00      0.23563    
    420.27      0.23998    
    422.53      0.24432    
    424.80      0.24866    
    427.07      0.25300    
    429.33      0.25733    
    431.60      0.26167    
    433.87      0.26599    
    436.13      0.27032    
    438.40      0.27463    
    440.67      0.27894    
    442.93      0.28324    
    445.20      0.28753    
    447.47      0.29182    
    449.73      0.29609    
    452.00      0.30035    
    454.27      0.30461    
    456.53      0.30885    
    458.80      0.31309    
    461.07      0.31733    
    463.33      0.32155    
    465.60      0.32581    
    467.87      0.33007    
    470.13      0.33432    
    472.40      0.33855    
    474.67      0.34276    
    476.93      0.34696    
    479.20      0.35114    
    481.47      0.35530    
    483.73      0.35945    
    486.00      0.36358    
    488.27      0.36769    
    490.53      0.37177    
    492.80      0.37584    
    495.07      0.37989    
    497.33      0.38392    
    499.60      0.38793    
    501.87      0.39192    
    504.13      0.39589    
    506.40      0.39984    
    508.67      0.40377    
    510.93      0.40767    
    513.20      0.41155    
    515.47      0.41541    
    517.73      0.41925    
    520.00      0.42307    
    522.27      0.42687    
    524.53      0.43064    
    526.80      0.43439    
    529.07      0.43812    
    531.33      0.44182    
    533.60      0.44551    
    535.87      0.44917    
    538.13      0.45280    
    540.40      0.45642    
    542.67      0.46001    
    544.93      0.46357    
    547.20      0.46712    
    549.47      0.47064    
    551.73      0.47414    
    554.00      0.47762    
    556.27      0.48107    
    558.53      0.48450    
    560.80      0.48790    
    563.07      0.49139    
    565.33      0.49486    
    567.60      0.49830    
    569.87      0.50173    
    572.13      0.50519    
    574.40      0.50864    
    576.67      0.51207    
    578.93      0.51547    
    581.20      0.51886    
    583.47      0.52226    
    585.73      0.52564    
    588.00      0.52900    
    590.27      0.53233    
    592.53      0.53567    
    594.80      0.53898    
    597.07      0.54227    
    599.33      0.54553    
    601.60      0.54877    
    603.87      0.55198    
    606.13      0.55517    
    608.40      0.55833    
    610.67      0.56147    
    612.93      0.56459    
    615.20      0.56768    
    617.47      0.57074    
    619.73      0.57378    
    622.00      0.57680    
    624.27      0.57980    
    626.53      0.58277    
    628.80      0.58571    
    631.07      0.58864    
    633.33      0.59154    
    635.60      0.59442    
    637.87      0.59727    
    640.13      0.60010    
    642.40      0.60291    
    644.67      0.60570    
    646.93      0.60846    
    649.20      0.61120    
    651.47      0.61392    
    653.73      0.61662    
    656.00      0.61930    
    658.27      0.62195    
    660.53      0.62458    
    662.80      0.62719    
    665.07      0.62979    
    667.33      0.63235    
    669.60      0.63490    
    671.87      0.63743    
    674.13      0.63994    
    676.40      0.64242    
    678.67      0.64489    
    680.93      0.64733    
    683.20      0.64976    
    685.47      0.65216    
    687.73      0.65455    
    690.00      0.65692    
    692.27      0.65926    
    694.53      0.66156    
    696.80      0.66382    
    699.07      0.66607    
    701.33      0.66830    
    703.60      0.67051    
    705.87      0.67269    
    708.13      0.67485    
    710.40      0.67699    
    712.67      0.67911    
    714.93      0.68121    
    717.20      0.68330    
    719.47      0.68537    
    721.73      0.68742    
    724.00      0.68946    
    726.27      0.69148    
    728.53      0.69348    
    730.80      0.69547    
    733.07      0.69744    
    735.33      0.69940    
    737.60      0.70134    
    739.87      0.70327    
    742.13      0.70518    
    744.40      0.70707    
    746.67      0.70895    
    748.93      0.71081    
    751.20      0.71266    
    753.47      0.71449    
    755.73      0.71631    
    758.00      0.71812    
    760.27      0.71991    
    762.53      0.72169    
    764.80      0.72347    
    767.07      0.72523    
    769.33      0.72698    
    771.60      0.72871    
    773.87      0.73044    
    776.13      0.73216    
    778.40      0.73388    
    780.67      0.73558    
    782.93      0.73727    
    785.20      0.73894    
    787.47      0.74061    
    789.73      0.74228    
    792.00      0.74394    
    794.27      0.74558    
    796.53      0.74721    
    798.80      0.74883    
    801.07      0.75045    
    803.33      0.75208    
    805.60      0.75369    
    807.87      0.75529    
    810.13      0.75688    
    812.40      0.75846    
    814.67      0.76002    
    816.93      0.76157    
    819.20      0.76310    
    821.47      0.76463    
    823.73      0.76614    
    826.00      0.76764    
    828.27      0.76913    
    830.53      0.77060    
    832.80      0.77207    
    835.07      0.77352    
    837.33      0.77496    
    839.60      0.77638    
    841.87      0.77779    
    844.13      0.77919    
    846.40      0.78058    
    848.67      0.78196    
    850.93      0.78333    
    853.20      0.78468    
    855.47      0.78602    
    857.73      0.78735    
    860.00      0.78867    
    862.27      0.78998    
    864.53      0.79128    
    866.80      0.79257    
    869.07      0.79384    
    871.33      0.79510    
    873.60      0.79636    
    875.87      0.79760    
    878.13      0.79884    
    880.40      0.80006    
    882.67      0.80128    
    884.93      0.80248    
    887.20      0.80368    
    889.47      0.80487    
    891.73      0.80604    
    894.00      0.80721    
    896.27      0.80838    
    898.53      0.80956    
    900.80      0.81073    
    903.07      0.81188    
    905.33      0.81303    
    907.60      0.81418    
    909.87      0.81531    
    912.13      0.81644    
    914.40      0.81757    
    916.67      0.81869    
    918.93      0.81981    
    921.20      0.82091    
    923.47      0.82200    
    925.73      0.82310    
    928.00      0.82418    
    930.27      0.82526    
    932.53      0.82633    
    934.80      0.82739    
    937.07      0.82844    
    939.33      0.82948    
    941.60      0.83052    
    943.87      0.83155    
    946.13      0.83257    
    948.40      0.83358    
    950.67      0.83458    
    952.93      0.83558    
    955.20      0.83657    
    957.47      0.83755    
    959.73      0.83853    
    962.00      0.83950    
    964.27      0.84046    
    966.53      0.84141    
    968.80      0.84235    
    971.07      0.84329    
    973.33      0.84422    
    975.60      0.84515    
    977.87      0.84606    
    980.13      0.84697    
    982.40      0.84788    
    984.67      0.84877    
    986.93      0.84966    
    989.20      0.85054    
    991.47      0.85142    
    993.73      0.85229    
    996.00      0.85315    
    998.27      0.85400    
    1000.5      0.85485    
    1002.8      0.85570    
    1005.1      0.85653    
    1007.3      0.85736    
    1009.6      0.85819    
    1011.9      0.85900    
    1014.1      0.85982    
    1016.4      0.86062    
    1018.7      0.86142    
    1020.9      0.86221    
    1023.2      0.86299    
    1025.5      0.86377    
    1027.7      0.86455    
    1030.0      0.86531    
    1032.3      0.86608    
    1034.5      0.86684    
    1036.8      0.86759    
    1039.1      0.86834    
    1041.3      0.86908    
    1043.6      0.86982    
    1045.9      0.87056    
    1048.1      0.87128    
    1050.4      0.87201    
    1052.7      0.87273    
    1054.9      0.87345    
    1057.2      0.87416    
    1059.5      0.87486    
    1061.7      0.87556    
    1064.0      0.87626    
    1066.3      0.87695    
    1068.5      0.87764    
    1070.8      0.87832    
    1073.1      0.87899    
    1075.3      0.87966    
    1077.6      0.88033    
    1079.9      0.88099    
    1082.1      0.88164    
    1084.4      0.88230    
    1086.7      0.88294    
    1088.9      0.88356    
    1091.2      0.88418    
    1093.5      0.88480    
    1095.7      0.88542    
    1098.0      0.88603    
    1100.3      0.88663    
    1102.5      0.88723    
    1104.8      0.88782    
    1107.1      0.88840    
    1109.3      0.88898    
    1111.6      0.88955    
    1113.9      0.89012    
    1116.1      0.89069    
    1118.4      0.89125    
    1120.7      0.89181    
    1122.9      0.89237    
    1125.2      0.89292    
    1127.5      0.89346    
    1129.7      0.89401    
    1132.0      0.89455    
    1134.3      0.89508    
    1136.5      0.89562    
    1138.8      0.89615    
    1141.1      0.89667    
    1143.3      0.89719    
    1145.6      0.89771    
    1147.9      0.89823    
    1150.1      0.89874    
    1152.4      0.89925    
    1154.7      0.89975    
    1156.9      0.90025    
    1159.2      0.90075    
    1161.5      0.90124    
    1163.7      0.90173    
    1166.0      0.90222    
    1168.3      0.90271    
    1170.5      0.90319    
    1172.8      0.90367    
    1175.1      0.90414    
    1177.3      0.90461    
    1179.6      0.90508    
    1181.9      0.90555    
    1184.1      0.90601    
    1186.4      0.90647    
    1188.7      0.90693    
    1190.9      0.90738    
    1193.2      0.90783    
    1195.5      0.90828    
    1197.7      0.90873    
    1200.0      0.90917    
