 Ti Density=4.54 Thickness=3.00000E-02 microns
 Photon Energy (eV), Transmission
    180.00      0.79151    
    182.27      0.79435    
    184.53      0.79700    
    186.80      0.79957    
    189.07      0.80208    
    191.33      0.80454    
    193.60      0.80695    
    195.87      0.80929    
    198.13      0.81169    
    200.40      0.81452    
    202.67      0.81748    
    204.93      0.82043    
    207.20      0.82331    
    209.47      0.82612    
    211.73      0.82886    
    214.00      0.83154    
    216.27      0.83414    
    218.53      0.83683    
    220.80      0.83971    
    223.07      0.84252    
    225.33      0.84525    
    227.60      0.84792    
    229.87      0.85052    
    232.13      0.85306    
    234.40      0.85553    
    236.67      0.85783    
    238.93      0.85987    
    241.20      0.86183    
    243.47      0.86373    
    245.73      0.86560    
    248.00      0.86742    
    250.27      0.86920    
    252.53      0.87094    
    254.80      0.87265    
    257.07      0.87440    
    259.33      0.87615    
    261.60      0.87793    
    263.87      0.87968    
    266.13      0.88140    
    268.40      0.88308    
    270.67      0.88473    
    272.93      0.88634    
    275.20      0.88791    
    277.47      0.88946    
    279.73      0.89099    
    282.00      0.89248    
    284.27      0.89395    
    286.53      0.89539    
    288.80      0.89679    
    291.07      0.89817    
    293.33      0.89952    
    295.60      0.90085    
    297.87      0.90214    
    300.13      0.90342    
    302.40      0.90466    
    304.67      0.90588    
    306.93      0.90709    
    309.20      0.90826    
    311.47      0.90943    
    313.73      0.91057    
    316.00      0.91170    
    318.27      0.91280    
    320.53      0.91388    
    322.80      0.91495    
    325.07      0.91599    
    327.33      0.91701    
    329.60      0.91801    
    331.87      0.91900    
    334.13      0.91997    
    336.40      0.92092    
    338.67      0.92185    
    340.93      0.92277    
    343.20      0.92367    
    345.47      0.92455    
    347.73      0.92542    
    350.00      0.92627    
    352.27      0.92711    
    354.53      0.92809    
    356.80      0.92905    
    359.07      0.93003    
    361.33      0.93101    
    363.60      0.93198    
    365.87      0.93293    
    368.13      0.93386    
    370.40      0.93478    
    372.67      0.93567    
    374.93      0.93655    
    377.20      0.93741    
    379.47      0.93826    
    381.73      0.93909    
    384.00      0.93986    
    386.27      0.94062    
    388.53      0.94133    
    390.80      0.94193    
    393.07      0.94252    
    395.33      0.94311    
    397.60      0.94371    
    399.87      0.94430    
    402.13      0.94488    
    404.40      0.94546    
    406.67      0.94603    
    408.93      0.94659    
    411.20      0.94715    
    413.47      0.94769    
    415.73      0.94823    
    418.00      0.94876    
    420.27      0.94927    
    422.53      0.94979    
    424.80      0.95029    
    427.07      0.95079    
    429.33      0.95128    
    431.60      0.95176    
    433.87      0.95223    
    436.13      0.95270    
    438.40      0.95316    
    440.67      0.95362    
    442.93      0.95406    
    445.20      0.95450    
    447.47      0.95494    
    449.73      0.95537    
    452.00      0.95579    
    454.27      0.66241    
    456.53      0.66534    
    458.80      0.66823    
    461.07      0.67108    
    463.33      0.67391    
    465.60      0.67670    
    467.87      0.67946    
    470.13      0.68219    
    472.40      0.68489    
    474.67      0.68756    
    476.93      0.69021    
    479.20      0.69282    
    481.47      0.69540    
    483.73      0.69795    
    486.00      0.70048    
    488.27      0.70298    
    490.53      0.70545    
    492.80      0.70789    
    495.07      0.71030    
    497.33      0.71269    
    499.60      0.71505    
    501.87      0.71739    
    504.13      0.71970    
    506.40      0.72198    
    508.67      0.72424    
    510.93      0.72648    
    513.20      0.72869    
    515.47      0.73088    
    517.73      0.73304    
    520.00      0.73518    
    522.27      0.73730    
    524.53      0.73940    
    526.80      0.74147    
    529.07      0.74352    
    531.33      0.74555    
    533.60      0.74755    
    535.87      0.74953    
    538.13      0.75150    
    540.40      0.75344    
    542.67      0.75536    
    544.93      0.75726    
    547.20      0.75914    
    549.47      0.76100    
    551.73      0.76284    
    554.00      0.76333    
    556.27      0.76346    
    558.53      0.76359    
    560.80      0.76372    
    563.07      0.76320    
    565.33      0.76257    
    567.60      0.76193    
    569.87      0.76130    
    572.13      0.76067    
    574.40      0.76004    
    576.67      0.75942    
    578.93      0.75879    
    581.20      0.75933    
    583.47      0.76020    
    585.73      0.76107    
    588.00      0.76193    
    590.27      0.76336    
    592.53      0.76509    
    594.80      0.76681    
    597.07      0.76852    
    599.33      0.77020    
    601.60      0.77187    
    603.87      0.77353    
    606.13      0.77516    
    608.40      0.77678    
    610.67      0.77839    
    612.93      0.77998    
    615.20      0.78155    
    617.47      0.78311    
    619.73      0.78465    
    622.00      0.78618    
    624.27      0.78770    
    626.53      0.78920    
    628.80      0.79070    
    631.07      0.79219    
    633.33      0.79368    
    635.60      0.79515    
    637.87      0.79660    
    640.13      0.79808    
    642.40      0.79955    
    644.67      0.80100    
    646.93      0.80243    
    649.20      0.80386    
    651.47      0.80530    
    653.73      0.80671    
    656.00      0.80812    
    658.27      0.80951    
    660.53      0.81089    
    662.80      0.81225    
    665.07      0.81360    
    667.33      0.81494    
    669.60      0.81626    
    671.87      0.81749    
    674.13      0.81872    
    676.40      0.81993    
    678.67      0.82113    
    680.93      0.82230    
    683.20      0.82342    
    685.47      0.82453    
    687.73      0.82564    
    690.00      0.82673    
    692.27      0.82781    
    694.53      0.82887    
    696.80      0.82993    
    699.07      0.83097    
    701.33      0.83201    
    703.60      0.83308    
    705.87      0.83417    
    708.13      0.83525    
    710.40      0.83633    
    712.67      0.83739    
    714.93      0.83847    
    717.20      0.83956    
    719.47      0.84065    
    721.73      0.84172    
    724.00      0.84278    
    726.27      0.84383    
    728.53      0.84488    
    730.80      0.84591    
    733.07      0.84694    
    735.33      0.84795    
    737.60      0.84896    
    739.87      0.84995    
    742.13      0.85094    
    744.40      0.85192    
    746.67      0.85289    
    748.93      0.85385    
    751.20      0.85481    
    753.47      0.85575    
    755.73      0.85669    
    758.00      0.85762    
    760.27      0.85854    
    762.53      0.85945    
    764.80      0.86035    
    767.07      0.86125    
    769.33      0.86214    
    771.60      0.86302    
    773.87      0.86390    
    776.13      0.86477    
    778.40      0.86564    
    780.67      0.86649    
    782.93      0.86735    
    785.20      0.86819    
    787.47      0.86903    
    789.73      0.86986    
    792.00      0.87069    
    794.27      0.87150    
    796.53      0.87232    
    798.80      0.87312    
    801.07      0.87392    
    803.33      0.87471    
    805.60      0.87549    
    807.87      0.87627    
    810.13      0.87704    
    812.40      0.87781    
    814.67      0.87856    
    816.93      0.87931    
    819.20      0.88006    
    821.47      0.88080    
    823.73      0.88153    
    826.00      0.88226    
    828.27      0.88298    
    830.53      0.88369    
    832.80      0.88440    
    835.07      0.88510    
    837.33      0.88580    
    839.60      0.88649    
    841.87      0.88717    
    844.13      0.88785    
    846.40      0.88853    
    848.67      0.88920    
    850.93      0.88986    
    853.20      0.89052    
    855.47      0.89117    
    857.73      0.89182    
    860.00      0.89247    
    862.27      0.89310    
    864.53      0.89374    
    866.80      0.89437    
    869.07      0.89499    
    871.33      0.89561    
    873.60      0.89622    
    875.87      0.89683    
    878.13      0.89744    
    880.40      0.89804    
    882.67      0.89863    
    884.93      0.89922    
    887.20      0.89980    
    889.47      0.90038    
    891.73      0.90096    
    894.00      0.90153    
    896.27      0.90210    
    898.53      0.90266    
    900.80      0.90322    
    903.07      0.90377    
    905.33      0.90432    
    907.60      0.90486    
    909.87      0.90540    
    912.13      0.90594    
    914.40      0.90647    
    916.67      0.90700    
    918.93      0.90752    
    921.20      0.90804    
    923.47      0.90856    
    925.73      0.90908    
    928.00      0.90960    
    930.27      0.91011    
    932.53      0.91062    
    934.80      0.91112    
    937.07      0.91162    
    939.33      0.91212    
    941.60      0.91262    
    943.87      0.91311    
    946.13      0.91360    
    948.40      0.91408    
    950.67      0.91456    
    952.93      0.91503    
    955.20      0.91551    
    957.47      0.91598    
    959.73      0.91645    
    962.00      0.91691    
    964.27      0.91737    
    966.53      0.91783    
    968.80      0.91828    
    971.07      0.91873    
    973.33      0.91918    
    975.60      0.91962    
    977.87      0.92006    
    980.13      0.92049    
    982.40      0.92093    
    984.67      0.92136    
    986.93      0.92178    
    989.20      0.92221    
    991.47      0.92263    
    993.73      0.92304    
    996.00      0.92346    
    998.27      0.92387    
    1000.5      0.92427    
    1002.8      0.92468    
    1005.1      0.92508    
    1007.3      0.92548    
    1009.6      0.92587    
    1011.9      0.92627    
    1014.1      0.92666    
    1016.4      0.92704    
    1018.7      0.92743    
    1020.9      0.92781    
    1023.2      0.92818    
    1025.5      0.92856    
    1027.7      0.92893    
    1030.0      0.92930    
    1032.3      0.92966    
    1034.5      0.93003    
    1036.8      0.93039    
    1039.1      0.93075    
    1041.3      0.93111    
    1043.6      0.93147    
    1045.9      0.93182    
    1048.1      0.93217    
    1050.4      0.93252    
    1052.7      0.93287    
    1054.9      0.93322    
    1057.2      0.93357    
    1059.5      0.93391    
    1061.7      0.93425    
    1064.0      0.93458    
    1066.3      0.93492    
    1068.5      0.93525    
    1070.8      0.93558    
    1073.1      0.93591    
    1075.3      0.93624    
    1077.6      0.93656    
    1079.9      0.93688    
    1082.1      0.93720    
    1084.4      0.93752    
    1086.7      0.93783    
    1088.9      0.93814    
    1091.2      0.93845    
    1093.5      0.93876    
    1095.7      0.93907    
    1098.0      0.93937    
    1100.3      0.93967    
    1102.5      0.93997    
    1104.8      0.94027    
    1107.1      0.94056    
    1109.3      0.94086    
    1111.6      0.94115    
    1113.9      0.94144    
    1116.1      0.94173    
    1118.4      0.94201    
    1120.7      0.94229    
    1122.9      0.94258    
    1125.2      0.94286    
    1127.5      0.94313    
    1129.7      0.94341    
    1132.0      0.94368    
    1134.3      0.94396    
    1136.5      0.94423    
    1138.8      0.94450    
    1141.1      0.94476    
    1143.3      0.94503    
    1145.6      0.94529    
    1147.9      0.94555    
    1150.1      0.94581    
    1152.4      0.94607    
    1154.7      0.94633    
    1156.9      0.94658    
    1159.2      0.94684    
    1161.5      0.94709    
    1163.7      0.94734    
    1166.0      0.94759    
    1168.3      0.94783    
    1170.5      0.94808    
    1172.8      0.94832    
    1175.1      0.94856    
    1177.3      0.94880    
    1179.6      0.94904    
    1181.9      0.94928    
    1184.1      0.94952    
    1186.4      0.94975    
    1188.7      0.94998    
    1190.9      0.95021    
    1193.2      0.95044    
    1195.5      0.95067    
    1197.7      0.95090    
    1200.0      0.95112    
